File: Cell-test-data/SiMP-LFP-PFOS1/JB6_SiMP-LFP-PFOS1_Channel_79_StatisticByStep.CSV
Date_Time                    ,Test Time (s),Step Time (s),Cycle Index,Step Index,Current (A),Voltage (V),Power (W),Charge Capacity (Ah),Discharge Capacity (Ah),Charge Energy (Wh),Discharge Energy (Wh),Charge Time (s),Discharge Time (s),V_Max_On_Cycle (V),Coulombic Efficiency (%),mAh/g
	08/05/2022 01:53:15.860,43200,43200,1.00,1.00,0,0.1807652,0,0,0,0,0,0,0,0,0,,
	08/07/2022 13:35:31.233,258135,7491.73,9.00,5.00,0.001060041,3.5,0.00371014,0.002205699,1.678534E-09,0.007311798,4.196361E-09,7490.712,0.0057,0,7.609987E-05,,
	08/08/2022 23:26:16.466,379981,6892.95,17.00,6.00,-0.00106012,2.5,-0.0026503,0.002060859,0.002029508,0.006818513,0.005760102,6998.921,6891.966,0,98.47873,,
	08/10/2022 06:39:32.496,492377,6361.2,26.00,5.00,0.001060087,3.500013,0.00371032,0.00187293,2.621054E-09,0.006200032,6.553163E-09,6360.41,0.0089,0,0.0001399441,,
	08/11/2022 11:30:09.133,596213,5826.96,34.00,6.00,-0.001060081,2.49999,-0.00265019,0.001737186,0.001715648,0.005753477,0.004869209,5899.386,5826.206,0,98.76015,,
	08/12/2022 14:17:22.177,692646,5540.05,43.00,5.00,0.001060047,3.5,0.00371016,0.001631096,1.531232E-09,0.005402529,3.828019E-09,5539.368,0.0052,0,9.38775E-05,,
	08/13/2022 15:26:12.383,783177,5165.11,51.00,6.00,-0.001060109,2.5,-0.00265027,0.001538796,0.001520815,0.005097526,0.004325527,5225.856,5164.446,0,98.83149,,
	08/14/2022 15:03:14.800,868199,4872.1,60.00,5.00,0.001060083,3.500017,0.00371031,0.001434528,2.532684E-09,0.004756007,6.33197E-09,4871.459,0.0077,0,0.0001765517,,
	08/15/2022 13:31:09.861,949074,4648.74,68.00,6.00,-0.001060135,2.499975,-0.00265031,0.001383191,0.001368755,0.004584788,0.003894803,4697.497,4648.154,0,98.95635,,
	08/16/2022 11:02:12.854,1.02654e+06,4443.56,77.00,5.00,0.001060105,3.50001,0.00371038,0.001308279,3.887088E-09,0.004338439,9.717853E-09,4442.996,0.0132,0,0.0002971146,,
	08/17/2022 07:34:58.539,1.1005e+06,4283.76,85.00,6.00,-0.001060113,2.499994,-0.00265028,0.001273834,0.001261304,0.004222658,0.00359251,4326.23,4283.234,0,99.0163,,
	08/18/2022 03:13:05.163,1.17119e+06,4071.85,94.00,5.00,0.001060084,3.500002,0.0037103,0.001198825,1.885053E-09,0.003978161,4.712681E-09,4071.304,0.0064,0,0.0001572417,,
	08/18/2022 21:58:34.816,1.23872e+06,3893.48,102.00,6.00,-0.001060106,2.499985,-0.00265025,0.001156152,0.001146387,0.003837441,0.003258198,3926.277,3893,0,99.1554,,
	08/19/2022 16:03:45.776,1.30383e+06,3797.78,111.00,5.00,0.001060078,3.500004,0.00371028,0.001118158,1.649238E-09,0.003711672,4.123148E-09,3797.298,0.0056,0,0.000147496,,
	08/20/2022 09:34:56.717,1.3669e+06,3647.45,119.00,6.00,-0.001060135,2.499983,-0.00265032,0.001082083,0.001073944,0.003592764,0.003052123,3674.813,3647.005,0,99.24788,,
	08/21/2022 02:34:43.526,1.42809e+06,3555.45,128.00,5.00,0.001060052,3.500008,0.00371019,0.001046824,3.680667E-09,0.00347622,9.201576E-09,3554.996,0.0125,0,0.0003516034,,
	08/21/2022 19:03:58.598,1.48744e+06,3436.31,136.00,6.00,-0.001060121,2.499998,-0.0026503,0.001019711,0.001011771,0.00338642,0.002874845,3462.957,3435.877,0,99.22131,,
	08/22/2022 11:05:27.696,1.54513e+06,3366.48,145.00,5.00,0.001060097,3.5,0.00371034,0.0009911937,2.797701E-09,0.003292259,6.993741E-09,3366.057,0.0095,0,0.0002822557,,
	08/23/2022 02:45:06.235,1.60151e+06,3264.42,153.00,6.00,-0.001060111,2.499998,-0.00265028,0.0009683959,0.0009611687,0.003216403,0.002730798,3288.61,3264,0,99.25369,,
	08/23/2022 18:01:09.340,1.65647e+06,3203.71,162.00,5.00,0.001060097,3.500004,0.00371034,0.0009432411,1.855099E-09,0.003133144,4.637799E-09,3203.304,0.0063,0,0.0001966729,,
	08/24/2022 08:52:37.558,1.70996e+06,3099.51,170.00,6.00,-0.001060139,2.499994,-0.00265034,0.0009190607,0.0009126028,0.00305355,0.002591291,3121.027,3099.094,0,99.29735,,
	08/24/2022 23:26:31.238,1.7624e+06,3052.86,179.00,5.00,0.001060106,3.500015,0.00371039,0.0008988781,2.326107E-09,0.002986363,5.815012E-09,3052.482,0.0079,0,0.0002587789,,
	08/25/2022 13:39:41.699,1.81359e+06,2988.43,187.00,6.00,-0.001060132,2.499992,-0.00265032,0.0008861357,0.0008799114,0.002943671,0.00249964,3009.349,2988.045,0,99.29759,,
	08/26/2022 03:37:09.848,1.86383e+06,2925.05,196.00,5.00,0.001060103,3.500004,0.00371036,0.0008612429,3.327579E-09,0.002861653,8.318708E-09,2924.689,0.0113,0,0.0003863694,,
	08/26/2022 17:16:25.530,1.91299e+06,2866.76,204.00,6.00,-0.001060097,2.499977,-0.00265022,0.0008501193,0.000844083,0.002824185,0.002397149,2887.005,2866.385,0,99.28995,,
	08/27/2022 06:39:16.816,1.96116e+06,2806.47,213.00,5.00,0.00106014,3.50001,0.0037105,0.0008263287,1.914292E-09,0.002745989,4.785594E-09,2806.102,0.0065,0,0.0002316623,,
	08/27/2022 19:46:01.895,2.00837e+06,2748.37,221.00,6.00,-0.001060129,2.499987,-0.00265031,0.0008146525,0.0008092329,0.002706876,0.002297036,2766.556,2748.028,0,99.33475,,
	08/28/2022 08:37:31.922,2.05466e+06,2705.04,230.00,5.00,0.001060087,3.500004,0.00371031,0.00079646,3.445709E-09,0.002646855,8.614059E-09,2704.71,0.0117,0,0.000432628,,
	08/28/2022 21:16:14.675,2.10018e+06,2649.17,238.00,6.00,-0.001060146,2.499998,-0.00265036,0.0007853369,0.0007800105,0.002609679,0.002213444,2666.934,2648.826,0,99.32177,,
	08/29/2022 09:40:40.547,2.14484e+06,2613.04,247.00,5.00,0.001060087,3.500002,0.00371031,0.0007693543,3.887996E-09,0.002556884,9.719671E-09,2612.695,0.0132,0,0.0005053583,,
	08/29/2022 21:54:31.791,2.18888e+06,2560.77,255.00,6.00,-0.00106013,2.499996,-0.00265032,0.0007592178,0.0007539919,0.002522988,0.002139159,2578.251,2560.445,0,99.31168,,
	08/30/2022 16:59:21.922,2.21154e+06,0.0059,264.00,5.00,0.00104961,6.725092,0.00705872,1.691038E-09,3.437709E-09,1.137238E-08,-3.539574E-09,0.0058,0.0117,0,203.2899,,
	08/30/2022 16:59:22.516,2.21154e+06,0.0086,272.00,6.00,-0.001052137,-0.8705702,0.000915959,4.860325E-09,3.137735E-09,3.245201E-08,-8.856787E-10,0.0167,0.0107,0,64.55812,,
	08/30/2022 16:59:23.117,2.21154e+06,0.0049,281.00,5.00,0.001059985,3.930019,0.00416576,1.442757E-09,3.474931E-09,5.670061E-09,7.89056E-09,0.0049,0.0118,0,240.8536,,
	08/30/2022 16:59:23.732,2.21154e+06,0.0084,289.00,6.00,-0.001051182,-0.3136234,0.000329675,3.338544E-09,5.37267E-09,1.731034E-08,-3.959063E-09,0.0116,0.0183,0,160.9286,,
	08/30/2022 16:59:24.343,2.21154e+06,0.0067,298.00,5.00,0.001156699,5.676769,0.00656631,2.152745E-09,2.967467E-09,1.222063E-08,3.479969E-09,0.0067,0.0087,0,137.8458,,
	08/30/2022 16:59:24.947,2.21155e+06,0.0091,306.00,6.00,-0.001059783,1.76008,-0.0018653,3.86228E-09,4.73258E-09,1.476513E-08,8.099645E-09,0.0132,0.016,0,122.5333,,
	08/30/2022 16:59:25.559,2.21155e+06,0.0127,315.00,5.00,0.001059249,4.699472,0.00497791,3.736794E-09,4.004766E-09,1.756096E-08,6.070458E-09,0.0127,0.0136,0,107.1712,,
	08/30/2022 16:59:26.162,2.21155e+06,0.0088,323.00,6.00,-0.001060269,1.381667,-0.00146494,2.967405E-09,5.395783E-09,1.447538E-08,7.42924E-09,0.0101,0.0175,0,181.8351,,
	08/30/2022 16:59:26.755,2.21155e+06,0.0083,332.00,5.00,0.001059411,4.75708,0.0050397,2.442531E-09,1.501504E-09,1.161931E-08,1.91842E-09,0.0083,0.0051,0,61.47331,,
	08/30/2022 16:59:27.350,2.21155e+06,0.0051,340.00,6.00,-0.001058416,1.478201,-0.00156455,4.886068E-09,4.414681E-09,2.100932E-08,6.088168E-09,0.0166,0.015,0,90.35242,,
	08/30/2022 16:59:27.955,2.21155e+06,0.0056,349.00,5.00,0.001075939,4.919186,0.00529274,1.673683E-09,3.799212E-09,8.233156E-09,5.202424E-09,0.0056,0.0129,0,226.9971,,
	08/30/2022 16:59:28.558,2.21155e+06,0.0079,357.00,6.00,-0.001058728,1.565849,-0.00165781,4.001486E-09,5.824718E-09,1.887121E-08,8.501143E-09,0.0136,0.0198,0,145.5639,,
	08/30/2022 16:59:29.163,2.21155e+06,0.0069,366.00,5.00,0.001059179,4.667112,0.00494331,2.000671E-09,2.384584E-09,9.337357E-09,3.490936E-09,0.0068,0.0081,0,119.1892,,
	08/30/2022 16:59:29.762,2.21155e+06,0.0071,374.00,6.00,-0.001059878,1.595156,-0.00169067,3.795088E-09,6.53516E-09,1.761705E-08,1.068277E-08,0.0129,0.0222,0,172.2005,,
	08/30/2022 16:59:30.356,2.21155e+06,0.0083,383.00,5.00,0.001059257,4.629723,0.00490407,2.412519E-09,2.826282E-09,8.001698E-09,4.29311E-09,0.0082,0.0096,0,117.1507,,
	08/30/2022 16:59:30.957,2.21155e+06,0.0100,391.00,6.00,-0.001074604,1.537714,-0.00165243,4.174399E-09,6.959829E-09,1.958332E-08,1.059208E-08,0.0142,0.0235,0,166.7265,,
	08/30/2022 16:59:31.560,2.21155e+06,0.0074,400.00,5.00,0.001059556,4.630743,0.00490653,2.148544E-09,2.56196E-09,9.949356E-09,3.979959E-09,0.0073,0.0087,0,119.2417,,
	08/30/2022 16:59:32.184,2.21155e+06,0.0104,408.00,6.00,-0.001059566,1.563335,-0.00165646,3.783138E-09,5.975528E-09,1.47745E-08,9.298878E-09,0.0129,0.019,0,157.9516,,
	08/30/2022 16:59:32.781,2.21155e+06,0.0053,417.00,5.00,0.001056466,4.644632,0.0049069,1.526006E-09,3.591936E-09,7.087738E-09,5.693503E-09,0.0052,0.0122,0,235.3815,,
	08/30/2022 16:59:33.374,2.21155e+06,0.0066,425.00,6.00,-0.001059827,1.685717,-0.00178657,3.090176E-09,4.712213E-09,1.448651E-08,7.378711E-09,0.0105,0.016,0,152.4901,,
	08/30/2022 16:59:33.985,2.21155e+06,0.0052,434.00,5.00,0.001059574,4.612562,0.00488735,1.530495E-09,2.383316E-09,7.059505E-09,3.801501E-09,0.0052,0.0081,0,155.7218,,
	08/30/2022 16:59:34.584,2.21155e+06,0.0075,442.00,6.00,-0.001059359,1.677231,-0.00177679,4.707858E-09,4.650692E-09,2.181368E-08,9.619898E-09,0.016,0.0158,0,98.78574,,
	08/30/2022 16:59:35.188,2.21156e+06,0.0051,451.00,5.00,0.001059668,4.60195,0.00487654,1.501196E-09,3.769602E-09,6.908429E-09,6.216709E-09,0.0051,0.0128,0,251.1065,,
	08/30/2022 16:59:35.790,2.21156e+06,0.0060,459.00,6.00,-0.001059734,1.685246,-0.00178591,2.795236E-09,4.858358E-09,1.293574E-08,7.981819E-09,0.0095,0.0165,0,173.8085,,
	08/30/2022 16:59:36.383,2.21156e+06,0.0053,468.00,5.00,0.001058424,4.600586,0.00486937,1.528834E-09,2.709046E-09,7.033532E-09,4.369661E-09,0.0052,0.0092,0,177.1969,,
	08/30/2022 16:59:36.969,2.21156e+06,0.0067,476.00,6.00,-0.001059985,1.779591,-0.00188634,4.208458E-09,2.679662E-09,1.901827E-08,4.7475E-09,0.0143,0.009099999,0,63.67324,,
	08/30/2022 16:59:37.569,2.21156e+06,0.0083,485.00,5.00,0.0010598,4.401184,0.00466437,2.442865E-09,3.386517E-09,8.896006E-09,6.291564E-09,0.0083,0.0115,0,138.6289,,
	08/30/2022 16:59:38.167,2.21156e+06,0.0066,493.00,6.00,-0.001059868,1.874424,-0.00198664,3.384475E-09,4.328543E-09,1.490906E-08,9.977492E-09,0.0115,0.0147,0,127.8941,,
	08/30/2022 16:59:38.780,2.21156e+06,0.0052,502.00,5.00,0.001059412,4.383268,0.00464369,1.530261E-09,2.179222E-09,6.707546E-09,4.028082E-09,0.0052,0.0074,0,142.4085,,
	08/30/2022 16:59:38.887,2.21156e+06,0.0091,503.00,6.00,-0.001059855,1.871939,-0.00198398,3.943498E-09,6.830948E-09,1.735962E-08,1.266095E-08,0.0134,0.0232,0,173.2205,,