File: Cell-test-data/SiMP-LFP-PFOS1/JB6_SiMP-LFP-PFOS1_Channel_79_StatisticByCycle.CSV
Date_Time                    ,Test Time (s),Step Time (s),Cycle Index,Step Index,Current (A),Voltage (V),Power (W),Charge Capacity (Ah),Discharge Capacity (Ah),Charge Energy (Wh),Discharge Energy (Wh),Charge Time (s),Discharge Time (s),V_Max_On_Cycle (V),Coulombic Efficiency (%),mAh/g
	08/06/2022 14:11:34.783,173898.925,58712,1,3,-0.0001589765,2.426798,-0.000385804,0.003179061,0.002592858,0.01057314,0.007713113,71977.55,58704.49,0,81.56052,,
	08/07/2022 19:45:40.881,280345,7350.39,10,6,-0.001060109,2.5,-0.00265027,0.002196513,0.002164213,0.007275623,0.00615007,7459.595,7349.433,0,98.52945,,
	08/09/2022 07:00:04.900,407209,6713.13,19,6,-0.001060127,2.499998,-0.00265032,0.002006461,0.001976584,0.006640656,0.005605268,6813.979,6712.215,0,98.51093,,
	08/10/2022 15:20:40.738,523645,6206.14,28,6,-0.001060141,2.499989,-0.00265034,0.00185168,0.001827351,0.006128757,0.005189401,6288.459,6205.366,0,98.68612,,
	08/11/2022 21:12:47.606,631172,5747.671,37,6,-0.001060081,2.499996,-0.0026502,0.001714758,0.001692339,0.005676288,0.004810621,5823.341,5746.917,0,98.69254,,
	08/13/2022 00:52:14.775,730739,5351.15,46,6,-0.001060132,2.499994,-0.00265032,0.001596371,0.001575567,0.005286582,0.004480097,5421.388,5350.496,0,98.6968,,
	08/14/2022 02:43:27.050,823811,4993.779,55,6,-0.001060138,2.5,-0.002650345,0.00148716,0.00147033,0.004928711,0.004179232,5050.176,4993.109,0,98.86828,,
	08/15/2022 03:03:52.755,911437,4748.45,64,6,-0.001060134,2.499998,-0.00265033,0.001413321,0.001398084,0.004684382,0.003977033,4799.584,4747.822,0,98.92184,,
	08/16/2022 02:16:08.013,994972,4545.38,73,6,-0.001059827,2.5,-0.00264957,0.001352083,0.001338332,0.004481622,0.003810728,4591.903,4544.794,0,98.983,,
	08/17/2022 00:22:32.332,1.07456e+06,4334.96,82,6,-0.001060093,2.499994,-0.00265023,0.00128849,0.001276406,0.004271965,0.003634396,4375.987,4334.438,0,99.06216,,
	08/17/2022 21:33:51.668,1.15084e+06,4076.81,91,6,-0.001060099,2.499998,-0.00265025,0.001210897,0.001200331,0.004018515,0.003410994,4112.073,4076.281,0,99.12746,,
	08/18/2022 17:37:18.695,1.22304e+06,3926.65,100,6,-0.001060155,2.499992,-0.00265038,0.001166033,0.001156144,0.003870209,0.003286457,3959.911,3926.153,0,99.15189,,
	08/19/2022 12:54:00.213,1.29244e+06,3784.26,109,6,-0.001060121,2.499996,-0.0026503,0.001122709,0.001114238,0.003727361,0.003166989,3812.722,3783.771,0,99.24544,,
	08/20/2022 07:32:53.923,1.35958e+06,3657.443,118,6,-0.001060081,2.5,-0.0026502,0.001085162,0.001076875,0.003603003,0.003060377,3685.151,3656.974,0,99.23632,,
	08/21/2022 01:35:28.040,1.42453e+06,3542.09,127,6,-0.001060132,2.499992,-0.00265032,0.001051254,0.00104294,0.00349074,0.002963536,3570.044,3541.639,0,99.20915,,
	08/21/2022 19:03:58.598,1.48744e+06,3436.31,136,6,-0.001060121,2.499998,-0.0026503,0.001019711,0.001011771,0.00338642,0.002874845,3462.957,3435.877,0,99.22131,,
	08/22/2022 12:01:10.202,1.54847e+06,3342.48,145,6,-0.001060121,2.5,-0.0026503,0.0009911951,0.0009841732,0.003292264,0.002796389,3366.062,3342.074,0,99.29156,,
	08/23/2022 04:33:58.262,1608042.404,3254.48,154,6,-0.001060158,2.499998,-0.00265039,0.0009649894,0.000958236,0.00320516,0.00272226,3277.058,3254.064,0,99.30016,,
	08/23/2022 20:40:15.349,1.66602e+06,3170.97,163,6,-0.001060093,2.499992,-0.00265022,0.0009404623,0.0009336398,0.003123893,0.002652263,3193.724,3170.535,0,99.27455,,
	08/24/2022 12:19:26.911,1.72237e+06,3090.85,172,6,-0.001060141,2.499998,-0.00265035,0.0009157927,0.0009100498,0.003042527,0.00258473,3110.065,3090.455,0,99.37289,,
	08/25/2022 03:38:58.048,1.77754e+06,3014.29,181,6,-0.001060074,2.499994,-0.00265018,0.0008937655,0.0008875169,0.00296955,0.002519849,3035.094,3013.902,0,99.30087,,
	08/25/2022 18:38:02.617,1831486.759,2963.032,190,6,-0.001060172,2.499985,-0.00265041,0.0008783963,0.0008724314,0.002918062,0.002477917,2983.057,2962.646,0,99.32094,,
	08/26/2022 09:15:38.423,1.88414e+06,2885.42,199,6,-0.001060097,2.5,-0.00265024,0.0008553737,0.0008495788,0.002842175,0.002411812,2904.774,2885.053,0,99.32253,,
	08/26/2022 23:36:41.758,1.93581e+06,2827.65,208,6,-0.001060093,2.499979,-0.00265021,0.0008381632,0.0008325709,0.002784913,0.002363377,2846.31,2827.301,0,99.33279,,
	08/27/2022 13:37:09.269,1.98623e+06,2772.37,217,6,-0.001060113,2.499981,-0.00265026,0.000821542,0.0008162817,0.002729879,0.002317187,2789.905,2772.012,0,99.35971,,
	08/28/2022 03:21:55.536,2.03572e+06,2710.46,226,6,-0.001060113,2.499998,-0.00265028,0.0008035409,0.0007980561,0.002670276,0.002264411,2728.717,2710.105,0,99.31743,,
	08/28/2022 16:49:46.493,2.08419e+06,2666.98,235,6,-0.001060166,2.5,-0.002650415,0.0007905331,0.0007852478,0.002626916,0.002228468,2684.631,2666.629,0,99.33142,,
	08/29/2022 06:03:10.876,2.1318e+06,2607.99,244,6,-0.001060107,2.499998,-0.00265027,0.0007729362,0.0007679152,0.002568867,0.002178322,2624.796,2607.695,0,99.3504,,
	08/29/2022 19:02:58.132,2.17858e+06,2575.39,253,6,-0.001059815,2.499985,-0.00264952,0.000763256,0.0007582541,0.00253623,0.002151596,2592.064,2575.051,0,99.34467,,
	08/30/2022 16:59:21.817,2.21154e+06,0.007,262,6,-0.001057144,-0.9430876,0.000996979,5.030598E-09,5.326497E-09,3.376215E-08,-5.461512E-09,0.0172,0.017,0,105.882,,
	08/30/2022 16:59:22.445,2.21154e+06,0.0051,271,6,-0.001046565,-0.7604923,0.000795905,3.776166E-09,4.354294E-09,2.47312E-08,-4.114594E-09,0.0129,0.0149,0,115.3099,,
	08/30/2022 16:59:23.078,2.21154e+06,0.0051,280,6,-0.001060858,2.277466,-0.00241607,4.296042E-09,4.550095E-09,1.682502E-08,1.032848E-09,0.0146,0.0145,0,105.9137,,
	08/30/2022 16:59:23.732,2211543.844,0.0084,289,6,-0.001051182,-0.3136234,0.000329675,3.338544E-09,5.37267E-09,1.731034E-08,-3.959063E-09,0.0116,0.0183,0,160.9286,,
	08/30/2022 16:59:24.378,2.21154e+06,0.0105,298,6,-0.001059843,1.421531,-0.0015066,3.051993E-09,6.056632E-09,1.82493E-08,1.38307E-08,0.0098,0.0192,0,198.4485,,
	08/30/2022 16:59:25.019,2.21155e+06,0.0085,307,6,-0.001059575,1.691313,-0.00179207,3.616568E-09,4.12121E-09,1.508291E-08,7.055753E-09,0.0123,0.014,0,113.9536,,
	08/30/2022 16:59:25.659,2.21155e+06,0.0051,316,6,-0.001060069,1.565311,-0.00165934,3.29539E-09,4.799555E-09,1.545982E-08,7.372753E-09,0.0112,0.0137,0,145.6445,,
	08/30/2022 16:59:26.297,2.21155e+06,0.0055,325,6,-0.001065464,1.401803,-0.00149357,3.165674E-09,5.720366E-09,1.583245E-08,7.587788E-09,0.0108,0.0194,0,180.6998,,
	08/30/2022 16:59:26.924,2.21155e+06,0.0055,334,6,-0.00105839,1.507439,-0.00159546,4.296129E-09,4.384085E-09,2.031012E-08,6.227107E-09,0.0146,0.0141,0,102.0473,,
	08/30/2022 16:59:27.567,2.21155e+06,0.0083,343,6,-0.00105948,1.446488,-0.00153253,4.147836E-09,5.653688E-09,1.657472E-08,8.172236E-09,0.0141,0.0183,0,136.3045,,
	08/30/2022 16:59:28.205,2.21155e+06,0.0079,352,6,-0.001059622,1.513758,-0.00160401,4.047923E-09,5.962646E-09,1.621406E-08,8.77383E-09,0.0137,0.0203,0,147.3014,,
	08/30/2022 16:59:28.844,2.21155e+06,0.0087,361,6,-0.001059594,1.496025,-0.00158518,2.470553E-09,5.505278E-09,1.154259E-08,1.03142E-08,0.0084,0.0187,0,222.8359,,
	08/30/2022 16:59:29.472,2.21155e+06,0.0089,370,6,-0.001060016,1.63092,-0.0017288,4.26792E-09,6.151955E-09,1.989161E-08,1.13872E-08,0.0145,0.0209,0,144.1441,,
	08/30/2022 16:59:30.112,2.21155e+06,0.0057,379,6,-0.001059485,1.609993,-0.00170576,4.207636E-09,4.151824E-09,1.947208E-08,6.409969E-09,0.0143,0.0141,0,98.67355,,
	08/30/2022 16:59:30.744,2211550.856,0.0052,388,6,-0.001059855,1.594093,-0.00168951,4.295658E-09,4.799738E-09,1.99345E-08,7.459388E-09,0.0146,0.0152,0,111.7346,,
	08/30/2022 16:59:31.381,2.21155e+06,0.0051,397,6,-0.001059317,1.618446,-0.00171445,4.236336E-09,5.47473E-09,1.965669E-08,8.552826E-09,0.0144,0.0186,0,129.2327,,
	08/30/2022 16:59:32.037,2.21155e+06,0.0074,406,6,-0.001060059,1.610001,-0.0017067,5.032629E-09,5.091485E-09,2.369408E-08,7.98049E-09,0.0171,0.0173,0,101.1695,,
	08/30/2022 16:59:32.675,2.21155e+06,0.0083,415,6,-0.001059682,1.618877,-0.00171549,5.149275E-09,4.385966E-09,2.412532E-08,8.535187E-09,0.0175,0.0149,0,85.17638,,
	08/30/2022 16:59:33.303,2.21155e+06,0.0051,424,6,-0.001059539,1.618963,-0.00171535,4.063134E-09,3.621203E-09,1.916391E-08,5.79398E-09,0.0138,0.0123,0,89.12341,,
	08/30/2022 16:59:33.947,2.21155e+06,0.0052,433,6,-0.001059634,1.680305,-0.00178051,4.207366E-09,5.211191E-09,1.956788E-08,8.449199E-09,0.0143,0.0177,0,123.8587,,
	08/30/2022 16:59:34.584,2.21155e+06,0.0075,442,6,-0.001059359,1.677231,-0.00177679,4.707858E-09,4.650692E-09,2.181368E-08,9.619898E-09,0.016,0.0158,0,98.78574,,
	08/30/2022 16:59:35.218,2.21156e+06,0.0054,451,6,-0.001059568,1.697065,-0.00179816,3.855206E-09,5.358954E-09,1.786462E-08,8.913944E-09,0.0131,0.0182,0,139.0056,,
	08/30/2022 16:59:35.861,2.21156e+06,0.0088,460,6,-0.001059666,1.651979,-0.00175055,3.649205E-09,5.327804E-09,1.694601E-08,1.193425E-08,0.0124,0.0173,0,145.9991,,
	08/30/2022 16:59:36.484,2.21156e+06,0.0056,469,6,-0.001059301,1.672428,-0.0017716,4.237951E-09,3.090595E-09,1.646307E-08,5.071435E-09,0.0144,0.0105,0,72.92664,,
	08/30/2022 16:59:37.106,2211557.218,0.0055,478,6,-0.001059538,1.840181,-0.00194974,2.442462E-09,5.740555E-09,1.088739E-08,1.027433E-08,0.0083,0.0195,0,235.0314,,
	08/30/2022 16:59:37.744,2.21156e+06,0.0104,487,6,-0.00105993,1.881748,-0.00199452,4.00261E-09,5.859178E-09,1.759962E-08,1.096765E-08,0.0136,0.0191,0,146.3839,,
	08/30/2022 16:59:38.381,2.21156e+06,0.0053,496,6,-0.001060202,1.885399,-0.0019989,5.239815E-09,4.94721E-09,2.314116E-08,9.204445E-09,0.0178,0.0168,0,94.41574,,
	08/30/2022 16:59:38.887,2.21156e+06,0.0091,503,6,-0.001059855,1.871939,-0.00198398,3.943498E-09,6.830948E-09,1.735962E-08,1.266095E-08,0.0134,0.0232,0,173.2205,,