File: Cell-test-data/SiMP-LFP-LSCE/JB0_SiMP-LFP-LSCE_03C_Channel_84_StatisticByCycle.CSV
Date_Time                    ,Test Time (s),Step Time (s),Cycle Index,Step Index,Current (A),Voltage (V),Power (W),Charge Capacity (Ah),Discharge Capacity (Ah),Charge Energy (Wh),Discharge Energy (Wh),Charge Time (s),Discharge Time (s),V_Max_On_Cycle (V),Coulombic Efficiency (%),mAh/g
	07/21/2022 16:55:51.762,181304,63187.7,1,3,-0.0001589973,2.499929,-0.000397482,0.003308329,0.002790356,0.01096983,0.00828709,74906.11,63179.71,0,84.34338,,
	07/24/2022 22:25:38.300,460290,7651.36,5,6,-0.001060021,2.499987,-0.00265004,0.002298909,0.002252587,0.00749506,0.006519358,7807.108,7650.385,0,97.98507,,
	07/25/2022 14:54:14.195,519605.962,7174.03,9,6,-0.001060031,2.499985,-0.00265006,0.002151781,0.002112122,0.007015268,0.006109862,7307.301,7173.08,0,98.15691,,
	07/26/2022 06:23:25.609,575357.376,6739.197,13,6,-0.001059909,2.499987,-0.00264976,0.002021399,0.001984002,0.006592932,0.005741762,6864.563,6738.332,0,98.14994,,
	07/26/2022 20:58:52.905,627885,6371.99,17,6,-0.00106003,2.499966,-0.00265004,0.001912025,0.001875964,0.006237763,0.005433936,6493.198,6371.207,0,98.11397,,
	07/27/2022 10:46:45.802,677558,6038.402,21,6,-0.001060016,2.5,-0.00265004,0.001806912,0.001777726,0.005899796,0.005152031,6136.178,6037.642,0,98.38474,,
	07/27/2022 23:54:05.917,724798,5733.83,25,6,-0.001060019,2.499933,-0.00264998,0.001715257,0.001688057,0.005603433,0.004895465,5824.916,5733.128,0,98.41427,,
	07/28/2022 12:21:30.557,769642,5462.24,29,6,-0.001059978,2.499981,-0.00264992,0.001632633,0.00160804,0.005336082,0.00466611,5544.639,5461.394,0,98.49367,,
	07/29/2022 00:15:12.078,812464,5210,33,6,-0.001059988,2.499985,-0.00264995,0.001557223,0.001533847,0.005091465,0.004453825,5288.239,5209.304,0,98.49887,,
	07/29/2022 11:34:26.727,853218,4970.78,37,6,-0.001060055,2.499931,-0.00265006,0.001484509,0.001463398,0.00485592,0.004250754,5041.188,4970.069,0,98.57789,,
	07/29/2022 22:27:00.054,892372,4770.06,41,6,-0.00106007,2.499952,-0.00265012,0.001426336,0.001404337,0.004665481,0.004083305,4843.891,4769.444,0,98.45764,,
	07/30/2022 08:47:58.813,929631,4548.08,45,6,-0.001059934,2.499994,-0.00264983,0.001357282,0.001338972,0.004442722,0.003893212,4609.37,4547.452,0,98.65098,,
	07/30/2022 18:44:18.476,965410,4388.67,49,6,-0.001060022,2.499996,-0.00265005,0.00131057,0.001292097,0.004288892,0.003761507,4450.858,4388.111,0,98.59042,,
	07/31/2022 04:14:44.056,999636,4176.85,53,6,-0.001060017,2.49996,-0.00265,0.00124677,0.001229667,0.004083295,0.00357787,4233.949,4176.255,0,98.62823,,
	07/31/2022 13:21:27.234,1.03244e+06,4008.61,57,6,-0.001060082,2.5,-0.002650205,0.001196824,0.001180187,0.003920808,0.003434853,4064.419,4008.11,0,98.60987,,
	07/31/2022 22:08:02.300,1064034.067,3876.72,61,6,-0.001059967,2.499949,-0.00264986,0.001156099,0.001141347,0.003787409,0.003324174,3926.171,3876.196,0,98.72398,,
	08/01/2022 06:34:23.283,1.09442e+06,3724.35,65,6,-0.001060015,2.499973,-0.00265001,0.001108308,0.001096467,0.003632627,0.003192446,3763.887,3723.831,0,98.93169,,
	08/01/2022 14:42:49.437,1.12372e+06,3601.32,69,6,-0.001060066,2.499966,-0.00265013,0.001071765,0.001060331,0.003513134,0.003089074,3639.883,3600.893,0,98.93324,,
	08/01/2022 22:38:44.174,1152275.941,3516.39,73,6,-0.001060091,2.499996,-0.00265022,0.001046162,0.001035301,0.003427934,0.003019494,3553.008,3515.901,0,98.96184,,
	08/02/2022 06:21:46.950,1.18006e+06,3414.2,77,6,-0.00106007,2.499969,-0.00265014,0.001016077,0.001005222,0.003328975,0.00293298,3450.769,3413.748,0,98.93165,,
	08/02/2022 13:46:04.530,1.20672e+06,3249.34,81,6,-0.001060013,2.499975,-0.00265001,0.0009673347,0.0009566029,0.003172831,0.002786198,3285.045,3248.902,0,98.89058,,
	08/02/2022 20:53:26.618,1.23236e+06,3155.68,85,6,-0.001060011,2.499973,-0.00265,0.0009383263,0.0009290632,0.003077828,0.002706629,3186.458,3155.219,0,99.0128,,
	08/03/2022 03:48:31.076,1.25726e+06,3060.29,89,6,-0.00105995,2.499945,-0.00264982,0.0009096152,0.0009009424,0.002984481,0.002624095,3088.974,3059.876,0,99.04654,,
	08/03/2022 10:31:24.962,1.28144e+06,2976.67,93,6,-0.001059996,2.499962,-0.00264995,0.0008862821,0.000876338,0.002908417,0.002552697,3009.711,2976.274,0,98.878,,
	08/03/2022 17:05:17.527,1.30507e+06,2903.11,97,6,-0.001059962,2.499992,-0.0026499,0.0008641106,0.000854674,0.00283519,0.002490147,2934.522,2902.713,0,98.90794,,
	08/03/2022 23:27:51.390,1.32802e+06,2839.62,101,6,-0.001060019,2.499981,-0.00265003,0.0008425254,0.0008360131,0.002764986,0.002436172,2861.169,2839.147,0,99.22704,,
	08/04/2022 05:42:53.619,1.35053e+06,2760.91,105,6,-0.001059978,2.499872,-0.00264981,0.0008206814,0.0008128071,0.002693501,0.002367785,2787.027,2760.444,0,99.04051,,
	08/04/2022 11:46:56.124,1.37237e+06,2699.42,109,6,-0.001060016,2.49995,-0.00264999,0.0008017971,0.000794737,0.002631806,0.002315654,2722.809,2699.021,0,99.11947,,
	08/04/2022 17:44:09.712,1.3938e+06,2648.54,113,6,-0.001060006,2.499947,-0.00264996,0.0007859592,0.0007797497,0.002579537,0.002272167,2669.157,2648.127,0,99.20994,,
	08/04/2022 23:32:44.063,1.41472e+06,2574.09,117,6,-0.001060072,2.499998,-0.00265018,0.000764766,0.0007578043,0.002510617,0.002207259,2597.084,2573.627,0,99.08969,,
	08/05/2022 05:11:56.687,1.43507e+06,2513.44,121,6,-0.001060054,2.499989,-0.00265012,0.0007456903,0.000739996,0.002448588,0.002154743,2532.338,2513.12,0,99.23637,,
	08/05/2022 10:44:01.635,1.45499e+06,2461.91,125,6,-0.001059985,2.499868,-0.00264982,0.000730413,0.0007248306,0.002398658,0.002110184,2480.543,2461.576,0,99.23573,,
	08/05/2022 16:11:45.875,1.47466e+06,2438.96,129,6,-0.001060016,2.499964,-0.00265,0.0007237302,0.0007180818,0.002375912,0.002092469,2457.936,2438.659,0,99.21954,,
	08/05/2022 21:35:08.762,1.49406e+06,2396.53,133,6,-0.001060015,2.499907,-0.00264994,0.0007110501,0.0007055737,0.002334104,0.002055836,2414.879,2396.246,0,99.22982,,
	08/06/2022 02:50:30.261,1.51298e+06,2330.53,137,6,-0.001060055,2.499998,-0.00265014,0.000691536,0.0006861538,0.002270861,0.00199802,2348.526,2330.248,0,99.22171,,
	08/06/2022 07:57:49.612,1.53142e+06,2276.941,141,6,-0.001060082,2.5,-0.002650205,0.0006754571,0.0006703525,0.002218657,0.001951017,2293.884,2276.645,0,99.24429,,
	08/06/2022 12:58:33.565,1.54947e+06,2238.39,145,6,-0.001060075,2.499996,-0.00265018,0.0006629827,0.0006590149,0.002177957,0.001917961,2251.514,2238.086,0,99.40152,,
	08/06/2022 17:57:02.890,1.56737e+06,2224.89,149,6,-0.001060084,2.499891,-0.00265009,0.0006596358,0.0006550702,0.002166084,0.001907887,2240.284,2224.625,0,99.30786,,
	08/06/2022 22:51:15.018,1585026.785,2175.32,153,6,-0.001060022,2.499905,-0.00264995,0.0006459198,0.0006404412,0.002121361,0.001864485,2193.732,2175.052,0,99.15182,,
	08/07/2022 03:38:01.344,1.60223e+06,2125.12,157,6,-0.001060066,2.499977,-0.00265014,0.0006302039,0.0006256707,0.002070434,0.001820302,2140.278,2124.861,0,99.28066,,
	08/07/2022 08:18:54.019,1619085.786,2084.2,161,6,-0.001060107,2.499895,-0.00265016,0.0006183182,0.0006136417,0.002031759,0.001784723,2099.788,2083.946,0,99.24368,,
	08/07/2022 12:54:43.961,1.63564e+06,2054.24,165,6,-0.001059967,2.499977,-0.00264989,0.0006084248,0.0006048064,0.001999495,0.001759076,2066.147,2053.988,0,99.40528,,
	08/07/2022 17:28:39.247,1.65207e+06,2040.11,169,6,-0.001060003,2.499949,-0.00264995,0.0006048929,0.0006006417,0.001987213,0.001747759,2054.344,2039.847,0,99.29719,,
	08/07/2022 21:58:16.958,1.66825e+06,2002.372,173,6,-0.00105998,2.499935,-0.00264988,0.0005936833,0.0005895366,0.00195063,0.001714916,2016.199,2002.119,0,99.30153,,
	08/08/2022 02:22:56.811,1684128.578,1963.34,177,6,-0.00105998,2.499992,-0.00264994,0.0005814387,0.0005780255,0.001910841,0.001680559,1974.502,1963.062,0,99.41298,,
	08/08/2022 06:42:22.601,1.69969e+06,1926.76,181,6,-0.001059966,2.499983,-0.0026499,0.0005709827,0.0005671905,0.001876921,0.001648409,1938.956,1926.416,0,99.33585,,
	08/08/2022 10:58:10.832,1715042.599,1903.292,185,6,-0.001059952,2.499866,-0.00264974,0.0005634266,0.0005603213,0.001852209,0.001628339,1913.374,1902.916,0,99.44885,,
	08/08/2022 15:12:23.493,1.7303e+06,1896.31,189,6,-0.001059994,2.499969,-0.00264995,0.0005616039,0.0005582615,0.001845561,0.001623279,1907.144,1895.961,0,99.40485,,
	08/08/2022 19:24:11.678,1.7454e+06,1876.33,193,6,-0.001060008,2.49996,-0.00264998,0.0005561527,0.0005523959,0.001827583,0.001606343,1888.681,1876.017,0,99.32449,,
	08/08/2022 23:32:18.723,1760290.49,1839.11,197,6,-0.001060089,2.499975,-0.0026502,0.0005458946,0.0005413954,0.001794148,0.001573711,1853.815,1838.755,0,99.17582,,
	08/09/2022 02:35:19.247,1.77127e+06,1816.26,200,6,-0.001059972,2.5,-0.00264993,0.0005380292,0.0005346704,0.001768588,0.001553613,1827.138,1815.921,0,99.37572,,