File: Cell-test-data/SiMP-LFP-PFF10/JB6_SiMP-LFP-PFF10_03C_Channel_90_StatisticByCycle.CSV
Date_Time                    ,Test Time (s),Step Time (s),Cycle Index,Step Index,Current (A),Voltage (V),Power (W),Charge Capacity (Ah),Discharge Capacity (Ah),Charge Energy (Wh),Discharge Energy (Wh),Charge Time (s),Discharge Time (s),V_Max_On_Cycle (V),Coulombic Efficiency (%),mAh/g
	07/21/2022 14:52:25.310,173799,58330.5,1,3,-0.0001589939,2.499988,-0.000397483,0.003191481,0.002575822,0.01056915,0.007649166,72255.23,58320.84,0,80.7093,,
	07/24/2022 12:57:29.668,426104,6796.92,5,6,-0.001059885,2.499986,-0.0026497,0.002045604,0.002000783,0.00666891,0.005785109,6946.568,6795.877,0,97.8089,,
	07/25/2022 03:37:40.671,478915,6379.32,9,6,-0.00105991,2.499995,-0.00264977,0.001917215,0.001877908,0.006248438,0.005425892,6510.611,6378.366,0,97.94978,,
	07/25/2022 17:26:13.930,528628,6017.2,13,6,-0.001059917,2.499999,-0.00264979,0.001806425,0.001771271,0.005888653,0.005119642,6134.384,6016.281,0,98.05393,,
	07/26/2022 06:26:54.596,575469,5671.64,17,6,-0.001059928,2.499986,-0.00264981,0.001704192,0.001669629,0.005557583,0.004828202,5787.26,5670.815,0,97.9719,,
	07/26/2022 18:45:38.127,619792,5380.68,21,6,-0.001059906,2.499995,-0.00264976,0.001616491,0.001583938,0.005272884,0.004584507,5489.41,5379.858,0,97.98618,,
	07/27/2022 06:25:22.073,661776,5101.02,25,6,-0.001059949,2.499995,-0.00264987,0.001528549,0.001501675,0.004988566,0.004348034,5190.749,5100.279,0,98.24184,,
	07/27/2022 17:31:09.150,701723,4859.5,29,6,-0.001059845,2.499988,-0.0026496,0.001455897,0.001430542,0.004753313,0.004144898,4944.123,4858.754,0,98.25848,,
	07/28/2022 04:04:48.292,739742,4628.27,33,6,-0.001059934,2.499982,-0.00264982,0.001385252,0.001362529,0.00452431,0.003949146,4704.308,4627.653,0,98.35966,,
	07/28/2022 14:09:23.464,776018,4416.42,37,6,-0.001059867,2.499995,-0.00264966,0.001321942,0.001300095,0.004318963,0.003769128,4489.252,4415.835,0,98.34737,,
	07/28/2022 23:46:40.046,810654.117,4218.94,41,6,-0.001059943,2.49999,-0.00264985,0.001261841,0.001241992,0.004124433,0.003601612,4285.174,4218.393,0,98.42694,,
	07/29/2022 08:59:48.049,843842,4057,45,6,-0.001059956,2.499999,-0.00264989,0.001213319,0.001194351,0.003966484,0.003464936,4120.532,4056.411,0,98.43668,,
	07/29/2022 17:51:44.562,875759,3914.48,49,6,-0.001060168,2.499988,-0.00265041,0.001171341,0.001152311,0.003828865,0.003346171,3977.857,3913.943,0,98.37536,,
	07/30/2022 02:23:23.200,906457,3748.6,53,6,-0.001059903,2.499988,-0.00264974,0.001118375,0.001103512,0.003657648,0.003201872,3798.035,3748.099,0,98.67107,,
	07/30/2022 10:35:16.565,935971,3611.8,57,6,-0.001059987,2.499995,-0.00264996,0.001079757,0.001063274,0.003531622,0.003085973,3666.792,3611.305,0,98.47342,,
	07/30/2022 18:30:52.178,964506,3507.56,61,6,-0.001059867,2.499991,-0.00264966,0.00104744,0.001032506,0.00342558,0.002998356,3557.18,3507.054,0,98.5743,,
	07/31/2022 02:09:44.278,992038,3371.325,65,6,-0.001059892,2.499991,-0.00264972,0.001005831,0.0009924575,0.00329104,0.002880281,3415.782,3370.872,0,98.67039,,
	07/31/2022 09:33:57.639,1.01869e+06,3273.96,69,6,-0.001059958,2.499991,-0.00264989,0.000976227,0.0009638096,0.003194001,0.002797516,3315.25,3273.551,0,98.72802,,
	07/31/2022 16:44:37.782,1044531.853,3168.63,73,6,-0.001059884,2.499984,-0.00264969,0.0009455982,0.0009327753,0.003094576,0.002706933,3211.241,3168.199,0,98.64394,,
	07/31/2022 23:43:19.987,1.06965e+06,3087.22,77,6,-0.0010599,2.49998,-0.00264973,0.0009212935,0.0009087918,0.003014566,0.002637889,3128.756,3086.784,0,98.64304,,
	08/01/2022 06:29:40.409,1.09403e+06,2999.22,81,6,-0.001059885,2.49999,-0.0026497,0.0008934385,0.0008829302,0.002924064,0.002561997,3034.09,2998.832,0,98.82384,,
	08/01/2022 13:05:28.113,1.11778e+06,2925.97,85,6,-0.001059914,2.499986,-0.00264977,0.0008705716,0.000861323,0.002849339,0.002499438,2956.438,2925.575,0,98.93764,,
	08/01/2022 19:34:00.944,1141095.015,2879.01,89,6,-0.001059842,2.499997,-0.0026496,0.0008571081,0.0008475253,0.002804113,0.002461034,2910.702,2878.629,0,98.88195,,
	08/02/2022 01:55:49.940,1.164e+06,2826.7,93,6,-0.001059864,2.499999,-0.00264966,0.0008419704,0.0008322139,0.002753781,0.002417577,2859.257,2826.302,0,98.84122,,
	08/02/2022 08:09:58.661,1.18645e+06,2766.774,97,6,-0.001060168,2.499986,-0.00265041,0.0008242762,0.0008145929,0.002695451,0.002366705,2799.222,2766.381,0,98.82523,,
	08/02/2022 14:11:22.910,1.20814e+06,2661.59,101,6,-0.001059919,2.499997,-0.00264979,0.0007911968,0.0007835263,0.002589973,0.002272122,2686.776,2661.222,0,99.03053,,
	08/02/2022 20:03:47.258,1.22928e+06,2605.18,105,6,-0.001059892,2.499995,-0.00264972,0.0007757727,0.0007669097,0.002539389,0.002224062,2634.468,2604.833,0,98.85753,,
	08/03/2022 01:49:14.711,1250008.782,2555.81,109,6,-0.001059943,2.499993,-0.00264985,0.0007602786,0.000752388,0.002488465,0.002181603,2581.821,2555.472,0,98.96214,,
	08/03/2022 07:27:04.274,1270278.345,2501.32,113,6,-0.001059884,2.499993,-0.0026497,0.0007440069,0.0007363398,0.002435382,0.002134843,2526.644,2500.995,0,98.96948,,
	08/03/2022 12:58:23.050,1.29016e+06,2457.66,117,6,-0.001059856,2.499988,-0.00264963,0.0007306782,0.0007234535,0.002391768,0.002097753,2481.341,2457.307,0,99.01124,,
	08/03/2022 18:23:58.616,1.30969e+06,2404.33,121,6,-0.001059862,2.499982,-0.00264964,0.000715549,0.0007077886,0.002342226,0.00205137,2430.01,2404.011,0,98.91546,,
	08/03/2022 23:42:45.103,1.32882e+06,2367.15,125,6,-0.001060176,2.499976,-0.00265041,0.0007038225,0.0006968417,0.002303735,0.002020312,2390.137,2366.826,0,99.00816,,
	08/04/2022 04:57:14.530,1.34769e+06,2323.531,129,6,-0.001059906,2.499995,-0.00264976,0.0006909934,0.0006839872,0.002261653,0.001982278,2346.548,2323.211,0,98.98607,,
	08/04/2022 10:04:15.482,1.36611e+06,2274.22,133,6,-0.001059907,2.499978,-0.00264974,0.0006761847,0.0006694915,0.002213656,0.001939687,2296.257,2273.91,0,99.01015,,
	08/04/2022 15:06:41.034,1.38426e+06,2243.99,137,6,-0.001059894,2.499999,-0.00264973,0.0006673742,0.0006605661,0.002184252,0.001914258,2266.4,2243.668,0,98.97987,,
	08/04/2022 20:04:10.830,1.4021e+06,2208.09,141,6,-0.0010599,2.499993,-0.00264974,0.0006564672,0.0006499996,0.002148496,0.001883632,2229.311,2207.796,0,99.01479,,
	08/05/2022 00:56:43.644,1.41966e+06,2165.289,145,6,-0.00105987,2.499991,-0.00264967,0.0006436171,0.0006374114,0.002106747,0.001846261,2185.676,2165.004,0,99.0358,,
	08/05/2022 05:42:50.562,1436824.633,2121.68,149,6,-0.001059907,2.499995,-0.00264976,0.0006306361,0.0006245979,0.002064468,0.00180861,2141.651,2121.393,0,99.04253,,
	08/05/2022 10:24:13.222,1.45371e+06,2088.61,153,6,-0.001059859,2.499991,-0.00264964,0.0006205395,0.0006148358,0.002031498,0.00178021,2107.386,2088.325,0,99.08086,,
	08/05/2022 15:02:05.729,1.47038e+06,2070.8,157,6,-0.00105985,2.499986,-0.00264961,0.0006150027,0.000609618,0.002012771,0.001766118,2088.487,2070.495,0,99.12444,,
	08/05/2022 19:37:20.463,1.48689e+06,2042.67,161,6,-0.001060165,2.49999,-0.0026504,0.000607224,0.0006013248,0.001986878,0.001742395,2062.089,2042.422,0,99.0285,,
	08/06/2022 00:07:56.613,1.50313e+06,2005.17,165,6,-0.00105984,2.49999,-0.00264959,0.0005961721,0.0005902746,0.001950861,0.001709675,2024.524,2004.925,0,99.01077,,
	08/06/2022 04:32:46.723,1.51902e+06,1963.07,169,6,-0.001059861,2.499997,-0.00264965,0.0005822184,0.0005778872,0.00190565,0.00167287,1977.184,1962.809,0,99.25608,,
	08/06/2022 08:52:31.354,1.53461e+06,1922.769,173,6,-0.001059937,2.499995,-0.00264984,0.0005720549,0.0005660276,0.00187273,0.001637769,1942.655,1922.519,0,98.94638,,
	08/06/2022 13:07:28.535,1549902.606,1894.4,177,6,-0.00105984,2.499984,-0.00264958,0.0005626202,0.0005576669,0.001841844,0.001613632,1910.607,1894.169,0,99.1196,,
	08/06/2022 17:20:23.413,1.56508e+06,1885.11,181,6,-0.001059808,2.499978,-0.0026495,0.0005598248,0.0005549931,0.001831927,0.001606977,1901.142,1884.874,0,99.13694,,
	08/06/2022 21:30:55.480,1.58011e+06,1856.87,185,6,-0.00105988,2.499991,-0.00264969,0.000551981,0.0005466357,0.001806151,0.00158248,1874.449,1856.604,0,99.03162,,
	08/07/2022 01:36:34.934,1.59485e+06,1820.71,189,6,-0.001060129,2.499999,-0.00265032,0.0005403089,0.0005359791,0.001768323,0.001550746,1834.814,1820.437,0,99.19865,,
	08/07/2022 05:37:26.600,1.6093e+06,1786.84,193,6,-0.001059843,2.49998,-0.00264959,0.000530533,0.000525985,0.001736607,0.001521266,1801.611,1786.578,0,99.14274,,
	08/07/2022 09:34:19.754,1.62351e+06,1755.836,197,6,-0.001059892,2.49999,-0.00264972,0.0005215196,0.0005168607,0.001707364,0.001494202,1770.99,1755.556,0,99.10667,,
	08/07/2022 12:29:06.639,1.634e+06,1734.566,200,6,-0.001059889,2.499986,-0.00264971,0.0005148876,0.000510613,0.001685717,0.001476122,1748.509,1734.307,0,99.1698,,