File: Cell-test-data/SiMP-LFP-PFF10/JB6_SiMP-LFP-PFF10_03C_Channel_90_StatisticByStep.CSV
Date_Time                    ,Test Time (s),Step Time (s),Cycle Index,Step Index,Current (A),Voltage (V),Power (W),Charge Capacity (Ah),Discharge Capacity (Ah),Charge Energy (Wh),Discharge Energy (Wh),Charge Time (s),Discharge Time (s),V_Max_On_Cycle (V),Coulombic Efficiency (%),mAh/g
	07/20/2022 02:35:45.929,43200,43200,1.00,1.00,0,0.2375889,0,0,0,0,0,0,0,0,0,,
	07/24/2022 07:11:58.489,405373,7482.73,4.00,5.00,0.001060119,3.50002,0.00371044,0.002203156,4.284872E-10,0.007200997,1.07123E-09,7481.585,0.0085,0,1.944879E-05,,
	07/24/2022 20:24:41.533,452936,6589.78,7.00,6.00,-0.001059873,2.499978,-0.00264966,0.001982454,0.001939824,0.006459756,0.005606479,6732.228,6588.831,0,97.84966,,
	07/25/2022 08:54:49.526,497944,6325.4,11.00,5.00,0.001060125,3.500005,0.00371044,0.001862409,2.414238E-09,0.006069963,6.036155E-09,6324.475,0.007,0,0.0001296299,,
	07/25/2022 20:45:50.477,540605,5924.38,14.00,6.00,-0.001059906,2.499986,-0.00264975,0.001781903,0.001743979,0.005808407,0.005041273,6051.166,5923.476,0,97.87173,,
	07/26/2022 08:02:02.330,581176,5707.7,18.00,5.00,0.001060077,3.50001,0.00371028,0.001680494,1.207167E-09,0.005480615,3.017744E-09,5706.844,0.0041,0,7.183403E-05,,
	07/26/2022 18:45:38.127,619792,5380.68,21.00,6.00,-0.001059906,2.499995,-0.00264976,0.001616491,0.001583938,0.005272884,0.004584507,5489.41,5379.858,0,97.98618,,
	07/27/2022 05:00:21.031,656675,5191.53,25.00,5.00,0.001060073,3.500007,0.00371026,0.001528547,2.119974E-09,0.004988558,5.299539E-09,5190.741,0.0072,0,0.0001386921,,
	07/27/2022 14:47:44.698,691919,4913.26,28.00,6.00,-0.001059862,2.499999,-0.00264965,0.001474016,0.001446295,0.004812434,0.004189119,5005.601,4912.512,0,98.11939,,
	07/28/2022 00:11:16.000,725730,4764.68,32.00,5.00,0.001060097,3.500007,0.00371035,0.00140283,3.178987E-09,0.00458138,7.947636E-09,4763.951,0.0108,0,0.0002266125,,
	07/28/2022 09:10:37.457,758092,4525.4,35.00,6.00,-0.001060002,2.499991,-0.00265,0.001354,0.001332212,0.004422913,0.003861762,4598.175,4524.755,0,98.39088,,
	07/28/2022 17:49:21.611,789216,4393.78,39.00,5.00,0.001060107,3.500026,0.0037104,0.001293646,1.47227E-09,0.004227224,3.680528E-09,4393.111,0.005,0,0.0001138078,,
	07/29/2022 02:06:59.186,819073,4175.95,42.00,6.00,-0.001059937,2.499999,-0.00264984,0.001249253,0.001229343,0.004083447,0.003565334,4242.534,4175.379,0,98.40628,,
	07/29/2022 10:07:45.369,847919,4077.29,46.00,5.00,0.001060057,3.500014,0.00371021,0.001200441,2.739016E-09,0.003924534,6.847202E-09,4076.733,0.0093,0,0.0002281675,,
	07/29/2022 17:51:44.562,875759,3914.48,49.00,6.00,-0.001060168,2.499988,-0.00265041,0.001171341,0.001152311,0.003828865,0.003346171,3977.857,3913.943,0,98.37536,,
	07/30/2022 01:20:54.579,902709,3798.51,53.00,5.00,0.0010601,3.500012,0.00371036,0.001118373,3.267848E-09,0.003657643,8.1688E-09,3798.03,0.0111,0,0.0002921966,,
	07/30/2022 08:33:57.440,928692,3648.33,56.00,6.00,-0.001059926,2.499999,-0.00264981,0.001088925,0.001074007,0.003561903,0.003116805,3697.973,3647.819,0,98.63002,,
	07/30/2022 15:34:15.436,953910,3574.86,60.00,5.00,0.001060098,3.50001,0.00371035,0.001052504,1.471961E-09,0.003442805,3.679502E-09,3574.322,0.005,0,0.0001398532,,
	07/30/2022 22:22:31.808,978406,3431.97,63.00,6.00,-0.001059933,2.499995,-0.00264983,0.001023804,0.001010314,0.003349454,0.00293223,3476.833,3431.522,0,98.68238,,
	07/31/2022 04:58:11.536,1.00215e+06,3366.64,67.00,5.00,0.001060064,3.500016,0.00371024,0.000991185,3.298041E-09,0.003243086,8.244278E-09,3366.149,0.0112,0,0.0003327372,,
	07/31/2022 11:22:59.369,1.02523e+06,3249.19,70.00,6.00,-0.001059937,2.499995,-0.00264984,0.0009693878,0.0009565073,0.00317189,0.002776446,3292.015,3248.733,0,98.67126,,
	07/31/2022 17:37:44.078,1.04772e+06,3186.26,74.00,5.00,0.001060016,3.500018,0.00371008,0.0009380963,2.031524E-09,0.003070096,5.078733E-09,3185.808,0.0069,0,0.0002165582,,
	07/31/2022 23:43:19.987,1.06965e+06,3087.22,77.00,6.00,-0.0010599,2.49998,-0.00264973,0.0009212935,0.0009087918,0.003014566,0.002637889,3128.756,3086.784,0,98.64304,,
	08/01/2022 05:39:41.161,1.09104e+06,3034.5,81.00,5.00,0.001060058,3.500012,0.00371022,0.0008934368,2.856396E-09,0.002924058,7.140926E-09,3034.084,0.009699999,0,0.0003197087,,
	08/01/2022 11:27:25.236,1.1119e+06,2939.27,84.00,6.00,-0.001059905,2.499999,-0.00264976,0.0008757011,0.0008652459,0.002866214,0.002510582,2973.839,2938.856,0,98.80608,,
	08/01/2022 17:09:17.196,1.13241e+06,2928.04,88.00,5.00,0.001060069,3.50001,0.00371025,0.00086209,1.619417E-09,0.002820466,4.048299E-09,2927.639,0.0055,0,0.0001878477,,
	08/01/2022 22:45:46.617,1.1526e+06,2854.7,91.00,6.00,-0.001059894,2.499988,-0.00264972,0.0008493055,0.0008404449,0.002778191,0.00244108,2884.151,2854.303,0,98.95673,,
	08/02/2022 04:17:16.223,1.17249e+06,2829.45,95.00,5.00,0.001060102,3.500001,0.00371036,0.0008330817,4.034354E-09,0.002724488,1.008608E-08,2829.061,0.0137,0,0.0004842688,,
	08/02/2022 09:41:47.847,1.19196e+06,2737.43,98.00,6.00,-0.001059859,2.499976,-0.00264962,0.0008160814,0.0008058291,0.002669033,0.002339593,2771.336,2737.07,0,98.74371,,
	08/02/2022 14:56:00.605,1.21081e+06,2677.66,102.00,5.00,0.001060077,3.500009,0.00371028,0.0007883849,3.032638E-09,0.002580782,7.581434E-09,2677.27,0.0103,0,0.0003846646,,
	08/02/2022 20:03:47.258,1.22928e+06,2605.18,105.00,6.00,-0.001059892,2.499995,-0.00264972,0.0007757727,0.0007669097,0.002539389,0.002224062,2634.468,2604.833,0,98.85753,,
	08/03/2022 01:06:38.877,1.24745e+06,2582.19,109.00,5.00,0.001060105,3.500007,0.00371037,0.0007602773,1.707554E-09,0.00248846,4.26889E-09,2581.817,0.0058,0,0.0002245962,,
	08/03/2022 06:03:15.859,1.26525e+06,2514.22,112.00,6.00,-0.001059965,2.499999,-0.00264991,0.0007481327,0.0007401284,0.002449032,0.002145811,2540.658,2513.842,0,98.93009,,
	08/03/2022 10:54:59.925,1.28275e+06,2489.33,116.00,5.00,0.001060044,3.500001,0.00371016,0.0007329371,3.239025E-09,0.002399358,8.097391E-09,2489.014,0.011,0,0.000441924,,
	08/03/2022 15:42:11.343,1.29999e+06,2438.4,119.00,6.00,-0.001059875,2.499978,-0.00264966,0.0007255793,0.0007178084,0.002374573,0.002081609,2463.99,2438.093,0,98.92901,,
	08/03/2022 20:24:14.845,1.31691e+06,2404.38,123.00,5.00,0.001060084,3.500016,0.00371031,0.000707924,1.913758E-09,0.002317524,4.784418E-09,2404.031,0.0065,0,0.0002703338,,
	08/04/2022 01:01:55.462,1.33357e+06,2364.12,126.00,6.00,-0.00105985,2.499991,-0.00264962,0.0007025799,0.0006960056,0.002299318,0.002018425,2385.843,2363.785,0,99.06427,,
	08/04/2022 05:36:06.811,1.35002e+06,2332.25,130.00,5.00,0.00106005,3.500009,0.00371018,0.0006866767,2.502146E-09,0.002247747,6.254792E-09,2331.908,0.0085,0,0.0003643848,,
	08/04/2022 10:04:15.482,1.36611e+06,2274.22,133.00,6.00,-0.001059907,2.499978,-0.00264974,0.0006761847,0.0006694915,0.002213656,0.001939687,2296.257,2273.91,0,99.01015,,
	08/04/2022 14:29:17.019,1.38201e+06,2266.71,137.00,5.00,0.001060091,3.500007,0.00371033,0.0006673715,2.973751E-09,0.002184243,7.433598E-09,2266.391,0.0101,0,0.0004455916,,
	08/04/2022 18:50:13.094,1.39767e+06,2217.66,140.00,6.00,-0.001060034,2.499991,-0.00265008,0.0006586488,0.0006528139,0.002155651,0.001891796,2236.679,2217.344,0,99.11411,,
	08/04/2022 23:07:55.583,1.41313e+06,2200.34,144.00,5.00,0.001060073,3.500009,0.00371027,0.0006478358,2.384684E-09,0.002120427,5.961553E-09,2200.007,0.0081,0,0.0003681,,
	08/05/2022 03:20:27.483,1.42828e+06,2140.08,147.00,6.00,-0.001059894,2.499988,-0.00264972,0.0006356693,0.0006299859,0.002081012,0.001824262,2158.718,2139.783,0,99.10593,,
	08/05/2022 07:28:59.334,1.44319e+06,2124.7,151.00,5.00,0.001060086,3.500009,0.00371031,0.0006255519,2.679199E-09,0.002047946,6.697632E-09,2124.373,0.009099999,0,0.0004282937,,
	08/05/2022 11:33:50.388,1.45788e+06,2078.37,154.00,6.00,-0.00105982,2.499993,-0.00264954,0.0006179296,0.0006118171,0.002023051,0.001771396,2098.441,2078.085,0,99.01082,,
	08/05/2022 15:36:51.146,1.47247e+06,2085.39,158.00,5.00,0.001060125,3.500001,0.00371044,0.0006140068,2.561496E-09,0.002009361,6.403698E-09,2085.098,0.0087,0,0.0004171771,,
	08/05/2022 19:37:20.463,1.48689e+06,2042.67,161.00,6.00,-0.001060165,2.49999,-0.0026504,0.000607224,0.0006013248,0.001986878,0.001742395,2062.089,2042.422,0,99.0285,,
	08/05/2022 23:34:31.414,1.50113e+06,2024.82,165.00,5.00,0.001060111,3.500014,0.0037104,0.0005961698,1.442587E-09,0.001950853,3.606386E-09,2024.516,0.0049,0,0.0002419759,,
	08/06/2022 03:27:06.150,1.51508e+06,1969.47,168.00,6.00,-0.0010599,2.499957,-0.0026497,0.0005862029,0.0005797483,0.001918598,0.001678537,1990.726,1969.182,0,98.89892,,
	08/06/2022 07:15:50.244,1.5288e+06,1952.9,172.00,5.00,0.001060047,3.500003,0.00371017,0.0005750006,2.914756E-09,0.00188226,7.286638E-09,1952.64,0.0099,0,0.0005069135,,
	08/06/2022 11:00:27.909,1.54228e+06,1906.67,175.00,6.00,-0.001059868,2.499997,-0.00264967,0.0005664661,0.0005612569,0.001854575,0.0016239,1923.687,1906.376,0,99.08041,,
	08/06/2022 14:42:35.670,1.55561e+06,1906.86,179.00,5.00,0.001060075,3.500007,0.00371027,0.0005614332,3.180572E-09,0.001837632,7.951802E-09,1906.59,0.0098,0,0.0005665093,,
	08/06/2022 18:23:23.862,1.56886e+06,1883.03,182.00,6.00,-0.001060164,2.499988,-0.0026504,0.0005586374,0.0005543477,0.001827981,0.001605164,1897.107,1882.766,0,99.23211,,
	08/06/2022 22:02:00.709,1.58197e+06,1865.2,186.00,5.00,0.001059814,3.500026,0.00370938,0.000549168,1.560539E-09,0.001797006,3.901072E-09,1864.911,0.0053,0,0.0002841643,,
	08/07/2022 01:36:34.934,1.59485e+06,1820.71,189.00,6.00,-0.001060129,2.499999,-0.00265032,0.0005403089,0.0005359791,0.001768323,0.001550746,1834.814,1820.437,0,99.19865,,
	08/07/2022 05:07:39.732,1.60751e+06,1801.91,193.00,5.00,0.00106016,3.500014,0.00371057,0.0005305313,2.56184E-09,0.001736601,6.404117E-09,1801.606,0.0075,0,0.000482882,,
	08/07/2022 08:35:32.633,1.61999e+06,1764.53,196.00,6.00,-0.001059873,2.499978,-0.00264966,0.0005244985,0.0005194376,0.001716979,0.001501914,1781.13,1764.285,0,99.0351,,
	08/07/2022 12:00:12.049,1.63227e+06,1748.8,200.00,5.00,0.001060111,3.500016,0.00371041,0.0005148863,1.913546E-09,0.001685713,4.783703E-09,1748.505,0.0065,0,0.0003716444,,
	08/07/2022 12:29:06.639,1.634e+06,1734.57,200.00,6.00,-0.001059889,2.499986,-0.00264971,0.0005148876,0.000510613,0.001685717,0.001476122,1748.509,1734.307,0,99.1698,,