File: Cell-test-data/SiMP-LFP-PFF3/JB5_SiMP-LFP-PFF3_03C_Channel_89_StatisticByStep.CSV
Date_Time                    ,Test Time (s),Step Time (s),Cycle Index,Step Index,Current (A),Voltage (V),Power (W),Charge Capacity (Ah),Discharge Capacity (Ah),Charge Energy (Wh),Discharge Energy (Wh),Charge Time (s),Discharge Time (s),V_Max_On_Cycle (V),Coulombic Efficiency (%),mAh/g
	07/20/2022 02:35:37.274,43200,43200,1.00,1.00,0,0.2391911,0,0,0,0,0,0,0,0,0,,
	07/24/2022 13:51:34.222,429357,8189.92,4.00,5.00,0.00106011,3.500024,0.00371041,0.002411278,4.24024E-10,0.007885674,1.060131E-09,8188.633,0.0083,0,1.758503E-05,,
	07/25/2022 04:22:10.667,481593,7232.28,7.00,6.00,-0.00106013,2.499997,-0.00265032,0.002172194,0.002129424,0.007084142,0.006159233,7376.763,7231.187,0,98.03105,,
	07/25/2022 18:07:06.696,531089,6953.01,11.00,5.00,0.001060056,3.500009,0.00371021,0.002047051,1.030646E-09,0.006675913,2.576492E-09,6951.891,0.0023,0,5.034783E-05,,
	07/26/2022 07:08:39.475,577982,6523.67,14.00,6.00,-0.001059893,2.499999,-0.00264973,0.001956763,0.001920437,0.006384122,0.005556458,6645.062,6522.7,0,98.14357,,
	07/26/2022 19:34:05.192,622708,6289.34,18.00,5.00,0.001060068,3.500007,0.00371025,0.001851717,2.414682E-09,0.00604339,6.036716E-09,6288.425,0.0082,0,0.0001304023,,
	07/27/2022 07:23:25.118,665268,5940.54,21.00,6.00,-0.001059863,2.499991,-0.00264965,0.001779236,0.001748728,0.005809586,0.005065322,6042.214,5939.68,0,98.28535,,
	07/27/2022 18:43:02.154,706045,5748.52,25.00,5.00,0.001060077,3.500007,0.00371028,0.001692484,2.826871E-09,0.005527867,7.066963E-09,5747.643,0.0096,0,0.000167025,,
	07/28/2022 05:32:18.344,745001,5445.34,28.00,6.00,-0.001060133,2.499999,-0.00265033,0.00162967,0.00160313,0.005325404,0.004647873,5534.239,5444.617,0,98.37147,,
	07/28/2022 15:55:33.131,782396,5264.01,32.00,5.00,0.00106003,3.500016,0.00371012,0.001549838,1.060096E-09,0.005067094,2.650423E-09,5263.325,0.0036,0,6.840048E-05,,
	07/29/2022 01:52:27.229,818210,5004.64,35.00,6.00,-0.00105984,2.499986,-0.00264959,0.001496754,0.001473317,0.004895013,0.004274401,5083.086,5004.006,0,98.43411,,
	07/29/2022 11:26:16.238,852639,4853.07,39.00,5.00,0.001060022,3.500003,0.00371008,0.00142885,1.913413E-09,0.004674434,4.783767E-09,4852.439,0.0065,0,0.0001339128,,
	07/29/2022 20:38:06.779,885750,4636.13,42.00,6.00,-0.001060117,2.499993,-0.00265029,0.001388788,0.001365054,0.004542753,0.003965807,4716.471,4635.517,0,98.29105,,
	07/30/2022 05:28:09.928,917553,4483.08,46.00,5.00,0.001060084,3.500009,0.0037103,0.001319913,1.060343E-09,0.004321144,2.650727E-09,4482.503,0.0036,0,8.03343E-05,,
	07/30/2022 13:57:25.584,948108,4278.7,49.00,6.00,-0.001060136,2.499982,-0.00265032,0.001278616,0.001259762,0.00418667,0.00365979,4342.229,4278.118,0,98.52542,,
	07/30/2022 22:10:27.246,977690,4164.45,53.00,5.00,0.001060002,3.500012,0.00371002,0.001226068,2.620101E-09,0.004015922,6.549816E-09,4163.862,0.0079,0,0.0002136995,,
	07/31/2022 06:04:40.997,1.00614e+06,3992.09,56.00,6.00,-0.00105986,2.499995,-0.00264964,0.001192567,0.001175261,0.003906699,0.003415933,4050.088,3991.563,0,98.54886,,
	07/31/2022 13:43:51.423,1.03369e+06,3885.96,60.00,5.00,0.00106003,3.500009,0.00371011,0.001144092,3.357342E-09,0.00374907,8.393391E-09,3885.448,0.0114,0,0.0002934504,,
	07/31/2022 21:06:38.697,1.06026e+06,3733.16,63.00,6.00,-0.001060145,2.499991,-0.00265035,0.001113617,0.001099178,0.003649642,0.003196646,3781.985,3732.661,0,98.70342,,
	08/01/2022 04:16:13.939,1.08604e+06,3646.43,67.00,5.00,0.001060043,3.500009,0.00371016,0.00107358,3.20945E-09,0.003519546,8.022995E-09,3645.94,0.0099,0,0.0002989485,,
	08/01/2022 11:11:54.231,1.11098e+06,3505.2,70.00,6.00,-0.001060103,2.499974,-0.00265023,0.001043987,0.001032017,0.00342293,0.003000742,3545.491,3504.753,0,98.85345,,
	08/01/2022 17:57:20.153,1.1353e+06,3455.2,74.00,5.00,0.001060077,3.500001,0.00371027,0.001017277,2.945147E-09,0.003334606,7.362743E-09,3454.741,0.01,0,0.0002895126,,
	08/02/2022 00:32:53.583,1.15904e+06,3345.47,77.00,6.00,-0.001060094,2.499978,-0.00265021,0.000997043,0.0009850273,0.003267762,0.002868244,3386.042,3345.04,0,98.79486,,
	08/02/2022 06:59:51.884,1.18225e+06,3293.71,81.00,5.00,0.001060024,3.500014,0.0037101,0.0009697065,2.738737E-09,0.003178027,6.848055E-09,3293.258,0.0085,0,0.0002824295,,
	08/02/2022 13:13:07.962,1.20465e+06,3130.59,84.00,6.00,-0.001060165,2.49997,-0.00265038,0.0009324509,0.000921707,0.003058981,0.002680029,3166.607,3130.171,0,98.84777,,
	08/02/2022 19:14:49.957,1.22635e+06,3075.05,88.00,5.00,0.001060044,3.500001,0.00371016,0.0009053518,2.473396E-09,0.002970442,6.183541E-09,3074.589,0.0084,0,0.0002731972,,
	08/03/2022 01:07:30.101,1.24751e+06,2985.87,91.00,6.00,-0.001060153,2.499995,-0.00265038,0.0008888167,0.000879151,0.002916219,0.00255715,3018.511,2985.458,0,98.91253,,
	08/03/2022 06:51:56.621,1.26818e+06,2935.22,95.00,5.00,0.001060086,3.500007,0.00371031,0.000864185,2.944599E-09,0.002835972,7.361068E-09,2934.816,0.01,0,0.0003407371,,
	08/03/2022 12:28:16.004,1.28836e+06,2849.28,98.00,6.00,-0.001060144,2.499974,-0.00265033,0.0008467195,0.0008389394,0.002779104,0.002439969,2875.547,2848.919,0,99.08116,,
	08/03/2022 17:58:23.812,1.30817e+06,2799.51,102.00,5.00,0.001060058,3.500003,0.00371021,0.0008242285,2.914452E-09,0.002705418,7.285664E-09,2799.138,0.008599999,0,0.0003535975,,
	08/03/2022 23:20:19.458,1.32748e+06,2728.47,105.00,6.00,-0.001060131,2.49999,-0.00265032,0.0008116326,0.0008033675,0.002664222,0.002336676,2756.388,2728.087,0,98.98167,,
	08/04/2022 04:37:42.895,1.34653e+06,2696.4,109.00,5.00,0.001060054,3.500009,0.0037102,0.000793858,2.914445E-09,0.002605903,7.284643E-09,2696.052,0.0099,0,0.0003671242,,
	08/04/2022 09:46:36.929,1.36506e+06,2615.56,112.00,6.00,-0.001060147,2.499988,-0.00265035,0.000777579,0.0007701247,0.002553103,0.002238769,2640.736,2615.202,0,99.04134,,
	08/04/2022 14:50:49.673,1.38331e+06,2596.94,116.00,5.00,0.001060032,3.50001,0.00371012,0.000764585,2.914519E-09,0.002510079,7.285367E-09,2596.604,0.0099,0,0.0003811896,,
	08/04/2022 19:49:27.980,1.40123e+06,2533.6,119.00,6.00,-0.001060142,2.499978,-0.00265033,0.0007531511,0.000745995,0.002472583,0.002169508,2557.755,2533.266,0,99.04984,,
	08/05/2022 00:42:53.536,1.41884e+06,2496.83,123.00,5.00,0.001060012,3.500003,0.00371005,0.0007351086,5.889938E-10,0.002413893,1.472437E-09,2496.472,0.0009,0,8.012338E-05,,
	08/05/2022 05:29:35.100,1.43604e+06,2431.12,126.00,6.00,-0.001060149,2.499986,-0.00265036,0.0007226937,0.0007157645,0.002373636,0.002079996,2454.313,2430.805,0,99.0412,,
	08/05/2022 10:11:27.273,1.45295e+06,2405.57,130.00,5.00,0.001060116,3.500009,0.00371042,0.0007082543,4.534378E-09,0.002326383,1.133541E-08,2405.251,0.0154,0,0.0006402188,,
	08/05/2022 14:49:07.745,1.46961e+06,2367.4,133.00,6.00,-0.001060069,2.499986,-0.00265016,0.0007024211,0.0006970356,0.002306621,0.002026596,2385.48,2367.09,0,99.23331,,
	08/05/2022 19:24:48.116,1.48615e+06,2354.4,137.00,5.00,0.001060024,3.500001,0.00371009,0.0006931748,1.413632E-09,0.002275865,3.534053E-09,2354.082,0.0048,0,0.0002039359,,
	08/05/2022 23:55:36.945,1.5024e+06,2295.53,140.00,6.00,-0.001060126,2.49999,-0.0026503,0.0006819596,0.0006759107,0.002239318,0.001964914,2315.964,2295.258,0,99.11301,,
	08/06/2022 04:20:50.406,1.51831e+06,2258.66,144.00,5.00,0.001060054,3.500009,0.0037102,0.0006649951,2.885894E-09,0.002184349,7.214496E-09,2258.362,0.0098,0,0.0004339722,,
	08/06/2022 08:40:52.456,1.53392e+06,2205,147.00,6.00,-0.00105988,2.499986,-0.00264969,0.0006549179,0.0006491766,0.002151626,0.001885391,2224.073,2204.726,0,99.12336,,
	08/06/2022 12:56:22.816,1.54925e+06,2183.22,151.00,5.00,0.001060102,3.500007,0.00371036,0.0006428001,3.062793E-09,0.002111987,7.656515E-09,2182.956,0.0092,0,0.0004764767,,
	08/06/2022 17:09:50.530,1.56445e+06,2163.59,154.00,6.00,-0.001060072,2.49999,-0.00265017,0.0006416321,0.0006370295,0.002107431,0.001851442,2179.018,2163.309,0,99.28268,,
	08/06/2022 21:21:16.247,1.57954e+06,2145.83,158.00,5.00,0.001060079,3.500003,0.00371028,0.0006317749,2.857281E-09,0.002075071,7.143233E-09,2145.494,0.009699999,0,0.0004522626,,
	08/07/2022 01:28:03.031,1.59435e+06,2091.42,161.00,6.00,-0.001060075,2.499997,-0.00265018,0.0006213786,0.0006157846,0.002041366,0.001788481,2110.188,2091.118,0,99.09975,,
	08/07/2022 05:30:43.658,1.60891e+06,2072.2,165.00,5.00,0.001060065,3.500028,0.00371026,0.000610096,3.71137E-09,0.002004785,9.277445E-09,2071.883,0.0126,0,0.0006083256,,
	08/07/2022 09:29:18.515,1.62322e+06,2023.22,168.00,6.00,-0.00106014,2.499997,-0.00265035,0.0006014101,0.0005957073,0.001976574,0.001728834,2042.343,2022.917,0,99.05177,,
	08/07/2022 13:24:26.125,1.63733e+06,2013.58,172.00,5.00,0.001060079,3.500018,0.0037103,0.000592843,2.031925E-09,0.001948403,5.079503E-09,2013.304,0.0056,0,0.0003427424,,
	08/07/2022 17:17:47.474,1.65133e+06,1987.5,175.00,6.00,-0.001060091,2.499999,-0.00265023,0.0005899936,0.0005851707,0.001938583,0.001699128,2003.661,1987.165,0,99.18255,,
	08/07/2022 21:08:41.643,1.66518e+06,1974.05,179.00,5.00,0.001060035,3.500001,0.00371012,0.0005811513,2.267508E-09,0.001909638,5.668791E-09,1973.636,0.0065,0,0.0003901751,,
	08/08/2022 00:56:12.065,1.67883e+06,1931.34,182.00,6.00,-0.001060191,2.499991,-0.00265047,0.0005734657,0.0005685792,0.00188467,0.001649969,1947.467,1930.979,0,99.1479,,
	08/08/2022 04:40:17.690,1.69228e+06,1913.73,186.00,5.00,0.001060085,3.500026,0.00371033,0.0005634215,2.4445E-09,0.001852007,6.11106E-09,1913.381,0.0083,0,0.0004338671,,
	08/08/2022 08:20:53.007,1.70552e+06,1876.01,189.00,6.00,-0.001060156,2.499999,-0.00265039,0.0005559437,0.0005522856,0.001827703,0.001601551,1887.946,1875.667,0,99.34201,,
	08/08/2022 11:59:11.912,1.71861e+06,1871.27,193.00,5.00,0.001060075,3.500009,0.00371027,0.0005509263,1.236818E-09,0.001811049,3.09192E-09,1870.951,0.0042,0,0.0002244979,,
	08/08/2022 15:36:21.420,1.73164e+06,1849.91,196.00,6.00,-0.001060138,2.49999,-0.00265033,0.0005489807,0.0005446677,0.001804273,0.001580093,1864.312,1849.614,0,99.21437,,
	08/08/2022 19:11:52.183,1.74457e+06,1847.32,200.00,5.00,0.001060082,3.500016,0.0037103,0.0005438805,2.591431E-09,0.001787424,6.477799E-09,1846.993,0.0088,0,0.0004764707,,
	08/08/2022 19:42:24.355,1.74641e+06,1832.15,200.00,6.00,-0.001060133,2.499995,-0.00265033,0.000543882,0.0005394239,0.001787429,0.001565092,1846.998,1831.812,0,99.18031,,