File: Cell-test-data/SiMP-LFP-PFF3/JB5_SiMP-LFP-PFF3_03C_Channel_89_StatisticByCycle.CSV
Date_Time                    ,Test Time (s),Step Time (s),Cycle Index,Step Index,Current (A),Voltage (V),Power (W),Charge Capacity (Ah),Discharge Capacity (Ah),Charge Energy (Wh),Discharge Energy (Wh),Charge Time (s),Discharge Time (s),V_Max_On_Cycle (V),Coulombic Efficiency (%),mAh/g
	07/21/2022 16:25:16.587,179379,61879,1,3,-0.0001590133,2.499991,-0.000397532,0.003281198,0.002732652,0.01087284,0.008114055,74287.66,61869.98,0,83.28213,,
	07/24/2022 20:11:27.195,452150,7478.92,5,6,-0.001060124,2.499997,-0.00265031,0.002248288,0.002202055,0.007333994,0.006374842,7635.218,7477.792,0,97.94366,,
	07/25/2022 12:18:31.773,510174.5,7021.304,9,6,-0.001059842,2.499993,-0.0026496,0.002108807,0.002067111,0.006876962,0.005978555,7161.342,7020.222,0,98.02279,,
	07/26/2022 03:29:09.707,564812,6615.235,13,6,-0.001059869,2.499995,-0.00264967,0.001984457,0.001947469,0.006474064,0.005633768,6739.169,6614.265,0,98.13614,,
	07/26/2022 17:49:15.817,616419,6262.75,17,6,-0.001060083,2.499991,-0.0026502,0.001877713,0.001843916,0.00612798,0.00533891,6376.688,6261.778,0,98.20008,,
	07/27/2022 07:23:25.118,665268,5940.54,21,6,-0.001059863,2.499991,-0.00264965,0.001779236,0.001748728,0.005809586,0.005065322,6042.214,5939.68,0,98.28535,,
	07/27/2022 20:17:12.612,711695,5650.43,25,6,-0.001060139,2.499988,-0.00265033,0.001692486,0.001663652,0.005527875,0.004822997,5747.65,5649.594,0,98.2963,,
	07/28/2022 08:33:06.644,755849,5378.54,29,6,-0.001060186,2.499997,-0.00265046,0.001610457,0.001583371,0.00526303,0.004591207,5469.022,5377.829,0,98.31812,,
	07/28/2022 20:14:14.753,797917,5127.06,33,6,-0.001060163,2.499997,-0.0026504,0.001534453,0.001509539,0.005016493,0.004379587,5211.035,5126.38,0,98.3764,,
	07/29/2022 07:22:52.719,838035,4889.41,37,6,-0.001059855,2.499997,-0.00264963,0.001461765,0.001439331,0.004781319,0.004177015,4964.217,4888.713,0,98.46532,,
	07/29/2022 18:02:13.551,876396,4696.24,41,6,-0.001060064,2.499982,-0.00265014,0.001403523,0.001382764,0.004591154,0.004017572,4766.566,4695.668,0,98.521,,
	07/30/2022 04:13:26.818,913070,4462.49,45,6,-0.001060161,2.499999,-0.0026504,0.001334618,0.00131385,0.00436894,0.003815515,4532.475,4461.91,0,98.44389,,
	07/30/2022 13:57:25.584,948108,4278.7,49,6,-0.001060136,2.499982,-0.00265032,0.001278616,0.001259762,0.00418667,0.00365979,4342.229,4278.118,0,98.52542,,
	07/30/2022 23:18:51.914,981794.641,4104.64,53,6,-0.001060158,2.49999,-0.00265038,0.001226069,0.001208434,0.004015926,0.003511338,4163.866,4104.088,0,98.56169,,
	07/31/2022 08:17:25.346,1.01411e+06,3954.34,57,6,-0.00105984,2.499997,-0.0026496,0.001180596,0.001164112,0.003867974,0.003383668,4009.382,3953.846,0,98.60378,,
	07/31/2022 16:55:08.074,1.04517e+06,3796.11,61,6,-0.00105983,2.499997,-0.00264957,0.001133137,0.001117692,0.003713641,0.003249084,3848.295,3795.587,0,98.63699,,
	08/01/2022 01:13:46.263,1.07509e+06,3661.88,65,6,-0.001060144,2.499991,-0.00265035,0.001092937,0.001078143,0.003582174,0.00313505,3711.756,3661.415,0,98.64639,,
	08/01/2022 09:14:22.996,1.10393e+06,3532.55,69,6,-0.001059852,2.49999,-0.00264962,0.001054663,0.001039947,0.003457703,0.003024357,3581.666,3532.082,0,98.6047,,
	08/01/2022 16:59:44.921,1.13185e+06,3435.23,73,6,-0.001060097,2.49997,-0.00265021,0.001024842,0.00101146,0.003359631,0.002943332,3480.44,3434.778,0,98.69423,,
	08/02/2022 00:32:53.583,1.15904e+06,3345.47,77,6,-0.001060094,2.499978,-0.00265021,0.000997043,0.0009850273,0.003267762,0.002868244,3386.042,3345.04,0,98.79486,,
	08/02/2022 07:54:04.830,1.18551e+06,3252.92,81,6,-0.001060121,2.499984,-0.00265029,0.0009697075,0.0009577871,0.00317803,0.002789911,3293.261,3252.52,0,98.77072,,
	08/02/2022 14:57:19.150,1.2109e+06,3109.41,85,6,-0.001059852,2.49999,-0.00264962,0.0009250098,0.0009153166,0.003034833,0.00266159,3141.346,3108.986,0,98.95209,,
	08/02/2022 21:46:42.590,1.23547e+06,3019,89,6,-0.001060102,2.49999,-0.00265024,0.000899018,0.000888926,0.002949837,0.002585792,3053.078,3018.621,0,98.87743,,
	08/03/2022 04:25:09.711,1.25937e+06,2937.54,93,6,-0.001059837,2.49999,-0.00264958,0.0008744488,0.0008648415,0.002869434,0.002514996,2969.675,2937.123,0,98.90132,,
	08/03/2022 10:52:50.715,1.28263e+06,2862.092,97,6,-0.001059828,2.49999,-0.00264956,0.0008521192,0.0008426431,0.002796617,0.00245039,2893.831,2861.729,0,98.88794,,
	08/03/2022 17:11:44.267,1.30537e+06,2795.5,101,6,-0.001059847,2.499999,-0.00264962,0.0008335126,0.0008229803,0.002735374,0.00239385,2830.636,2795.141,0,98.7364,,
	08/03/2022 23:20:19.458,1.32748e+06,2728.47,105,6,-0.001060131,2.49999,-0.00265032,0.0008116326,0.0008033675,0.002664222,0.002336676,2756.388,2728.087,0,98.98167,,
	08/04/2022 05:22:10.032,1.34919e+06,2667.11,109,6,-0.001059812,2.499982,-0.00264951,0.0007938602,0.0007851844,0.002605911,0.002283236,2696.059,2666.74,0,98.90714,,
	08/04/2022 11:13:48.878,1.37029e+06,2602.04,113,6,-0.001060097,2.49999,-0.00265023,0.0007742794,0.0007661374,0.002542232,0.002227742,2629.535,2601.685,0,98.94846,,
	08/04/2022 16:59:19.581,1.39102e+06,2557.07,117,6,-0.001059849,2.49999,-0.00264961,0.0007602564,0.00075285,0.002496028,0.002189166,2581.895,2556.727,0,99.0258,,
	08/04/2022 22:37:52.313,1.41134e+06,2507.57,121,6,-0.001060128,2.499995,-0.00265031,0.0007449994,0.0007382847,0.00244595,0.002146594,2530.108,2507.24,0,99.09869,,
	08/05/2022 04:08:09.283,1.43115e+06,2443.56,125,6,-0.001060147,2.49999,-0.00265036,0.0007252299,0.0007193341,0.002381893,0.002090283,2462.9,2443.249,0,99.18704,,
	08/05/2022 09:31:21.672,1.45054e+06,2394.54,129,6,-0.001059875,2.499999,-0.00264969,0.000711703,0.0007049811,0.002337448,0.002048637,2416.957,2394.218,0,99.05552,,
	08/05/2022 14:49:07.745,1.46961e+06,2367.4,133,6,-0.001060069,2.499986,-0.00265016,0.0007024211,0.0006970356,0.002306621,0.002026596,2385.48,2367.09,0,99.23331,,
	08/05/2022 20:03:41.159,1.48848e+06,2333.02,137,6,-0.001060083,2.49999,-0.0026502,0.0006931771,0.0006869293,0.002275873,0.001997686,2354.089,2332.709,0,99.09867,,
	08/06/2022 01:11:58.831,1.50698e+06,2278.74,141,6,-0.001060098,2.499991,-0.00265024,0.0006780927,0.0006709535,0.002226851,0.001950211,2302.805,2278.452,0,98.94717,,
	08/06/2022 06:12:47.565,1525030.292,2229.69,145,6,-0.001060155,2.499997,-0.00265038,0.0006617908,0.0006564579,0.00217396,0.001906932,2247.489,2229.399,0,99.19417,,
	08/06/2022 11:07:19.468,1.5427e+06,2180.164,149,6,-0.001060169,2.499993,-0.00265042,0.0006483156,0.0006419276,0.002130223,0.001864143,2201.65,2179.874,0,99.01469,,
	08/06/2022 15:57:27.536,1.56011e+06,2164.59,153,6,-0.001060077,2.499991,-0.00265018,0.00064244,0.0006373438,0.002110341,0.001851915,2181.725,2164.329,0,99.20675,,
	08/06/2022 20:45:30.388,1.57739e+06,2137.56,157,6,-0.001060091,2.499993,-0.00265022,0.0006342492,0.0006293611,0.002083095,0.001828939,2153.973,2137.251,0,99.22929,,
	08/07/2022 01:28:03.031,1.59435e+06,2091.42,161,6,-0.001060075,2.499997,-0.00265018,0.0006213786,0.0006157846,0.002041366,0.001788481,2110.188,2091.118,0,99.09975,,
	08/07/2022 06:04:58.981,1.61096e+06,2055.3,165,6,-0.00106014,2.49997,-0.00265032,0.0006100984,0.000605135,0.002004793,0.001756755,2071.891,2054.963,0,99.18645,,
	08/07/2022 10:36:44.102,1.62727e+06,2014.55,169,6,-0.001060184,2.49999,-0.00265045,0.0005979703,0.0005931422,0.001965349,0.001721313,2030.685,2014.248,0,99.19257,,
	08/07/2022 15:04:32.864,1.64334e+06,1997.74,173,6,-0.001060107,2.499982,-0.00265025,0.0005920846,0.0005881975,0.001945664,0.001707657,2010.764,1997.43,0,99.34348,,
	08/07/2022 19:30:03.311,1.65927e+06,1971.18,177,6,-0.001060155,2.499993,-0.00265038,0.0005852414,0.0005803661,0.00192304,0.001684867,1987.469,1970.829,0,99.16695,,
	08/07/2022 23:51:32.855,1.67496e+06,1940.78,181,6,-0.001060161,2.499997,-0.0026504,0.0005764774,0.0005714158,0.001894452,0.001658448,1957.713,1940.431,0,99.12197,,
	08/08/2022 04:08:23.930,1.69037e+06,1906.56,185,6,-0.001060165,2.499978,-0.00265039,0.0005658945,0.0005613299,0.001860072,0.001628409,1921.717,1906.261,0,99.1934,,
	08/08/2022 08:20:53.007,1.70552e+06,1876.01,189,6,-0.001060156,2.499999,-0.00265039,0.0005559437,0.0005522856,0.001827703,0.001601551,1887.946,1875.667,0,99.34201,,
	08/08/2022 12:30:10.623,1.72047e+06,1858.69,193,6,-0.00106013,2.499988,-0.00265031,0.0005509281,0.0005472579,0.001811055,0.001587395,1870.957,1858.419,0,99.33381,,
	08/08/2022 16:38:02.530,1.73535e+06,1842.96,197,6,-0.001060097,2.499997,-0.00265024,0.0005470504,0.0005426219,0.001798008,0.001574235,1857.834,1842.695,0,99.19047,,
	08/08/2022 19:42:24.355,1.74641e+06,1832.15,200,6,-0.001060133,2.499995,-0.00265033,0.000543882,0.0005394239,0.001787429,0.001565092,1846.998,1831.812,0,99.18031,,