File: Cell-test-data/SiMP-LFP-SF1/JB1_SiMP-LFP-SF1_Channel_71_StatisticByCycle.CSV
Date_Time                    ,Test Time (s),Step Time (s),Cycle Index,Step Index,Current (A),Voltage (V),Power (W),Charge Capacity (Ah),Discharge Capacity (Ah),Charge Energy (Wh),Discharge Energy (Wh),Charge Time (s),Discharge Time (s),V_Max_On_Cycle (V),Coulombic Efficiency (%),mAh/g
	08/06/2022 14:35:03.075,175275,60290.7,1,3,-0.0001589949,2.499987,-0.000397485,0.003169812,0.002662391,0.0105325,0.007892452,71773.61,60281.66,0,83.99207,,
	08/10/2022 10:48:06.473,507258,6432.35,10,6,-0.00106007,2.499987,-0.00265016,0.001936878,0.001893802,0.00632739,0.005495208,6578.58,6431.412,0,97.77604,,
	08/11/2022 16:58:02.004,615854,5623.64,19,6,-0.001059973,2.499998,-0.00264993,0.001688036,0.001655597,0.0055151,0.004812367,5733.237,5622.816,0,98.07824,,
	08/12/2022 19:24:40.320,711052,4991.27,28,6,-0.001060033,2.499998,-0.00265008,0.001495611,0.001469432,0.004890344,0.004273854,5079.726,4990.532,0,98.24968,,
	08/13/2022 19:02:05.900,796098,4468.33,37,6,-0.001060035,2.5,-0.00265009,0.001336749,0.001315541,0.004376107,0.0038242,4540.074,4467.681,0,98.41348,,
	08/14/2022 16:21:00.697,872833,4044.806,46,6,-0.001060068,2.499994,-0.00265016,0.001208999,0.001190884,0.003962212,0.003459478,4106.188,4044.169,0,98.50167,,
	08/15/2022 11:52:57.762,943150,3744.4,55,6,-0.00105995,2.499973,-0.00264985,0.001116764,0.001102318,0.003660892,0.003204737,3792.954,3743.842,0,98.70641,,
	08/16/2022 05:55:37.726,1.00811e+06,3480.38,64,6,-0.00105994,2.49999,-0.00264984,0.001038116,0.001024585,0.003403659,0.00297966,3525.833,3479.869,0,98.69654,,
	08/16/2022 22:37:13.398,1.06821e+06,3229.87,73,6,-0.001059893,2.499998,-0.00264973,0.0009613347,0.0009508272,0.003154609,0.00276324,3265.021,3229.385,0,98.90699,,
	08/17/2022 14:18:23.448,1.12468e+06,3021.05,82,6,-0.001059998,2.499989,-0.00264998,0.0009003215,0.0008893457,0.002955064,0.002583992,3057.924,3020.585,0,98.7809,,
	08/18/2022 04:48:15.588,1.17687e+06,2800.19,91,6,-0.00106007,2.499998,-0.00265017,0.0008332168,0.0008243825,0.002738692,0.00239096,2830.03,2799.756,0,98.93974,,
	08/18/2022 18:26:06.047,1.22594e+06,2645.625,100,6,-0.001060068,2.499987,-0.00265016,0.0007867739,0.0007789214,0.002587178,0.002257888,2672.202,2645.254,0,99.00193,,
	08/19/2022 07:20:30.245,1.2724e+06,2508.74,109,6,-0.001060185,2.499998,-0.00265046,0.0007459782,0.0007384922,0.002454082,0.00213976,2533.704,2508.349,0,98.99649,,
	08/19/2022 19:36:12.040,1.31654e+06,2387.34,118,6,-0.00106003,2.499998,-0.00265007,0.0007097358,0.0007028944,0.002335605,0.002035722,2410.606,2386.999,0,99.03606,,
	08/20/2022 07:17:47.210,1.35864e+06,2280.12,127,6,-0.001060151,2.5,-0.00265038,0.0006774781,0.0006713324,0.002230106,0.00194355,2301.036,2279.779,0,99.09286,,
	08/20/2022 18:28:31.594,1.39888e+06,2183.72,136,6,-0.001060135,2.499998,-0.00265034,0.0006487074,0.0006429553,0.002136046,0.001860541,2203.235,2183.393,0,99.11329,,
	08/21/2022 05:11:27.186,1437459.093,2094.93,145,6,-0.001060146,2.499977,-0.00265034,0.0006220585,0.0006167417,0.002048796,0.001783863,2112.852,2094.624,0,99.14529,,
	08/21/2022 15:29:13.915,1.47453e+06,2016.92,154,6,-0.001060123,2.499966,-0.00265027,0.0005987578,0.00059382,0.001972458,0.00171691,2033.745,2016.594,0,99.17532,,
	08/22/2022 01:24:38.844,1.51025e+06,1944.18,163,6,-0.00105989,2.499996,-0.00264972,0.0005769458,0.0005723284,0.001901049,0.001654036,1959.624,1943.89,0,99.19967,,
	08/22/2022 10:58:57.147,1544709.054,1877.08,172,6,-0.001060142,2.499977,-0.00265033,0.0005569621,0.0005526384,0.001835609,0.001596453,1891.778,1876.825,0,99.22371,,
	08/22/2022 20:13:56.049,1.57801e+06,1815.13,181,6,-0.001059848,2.49999,-0.00264961,0.0005386607,0.000534418,0.001775524,0.001543238,1829.51,1814.898,0,99.21237,,
	08/23/2022 05:11:14.903,1.61025e+06,1758.79,190,6,-0.001060141,2.499989,-0.00265034,0.0005218218,0.0005178346,0.001720333,0.001494743,1772.415,1758.516,0,99.23591,,
	08/23/2022 13:51:50.622,1.64148e+06,1706.061,199,6,-0.001060102,2.499998,-0.00265025,0.000506049,0.0005022878,0.001668559,0.001449355,1718.82,1705.781,0,99.25676,,
	08/23/2022 22:17:20.453,1.67181e+06,1657.2,208,6,-0.001059813,2.499987,-0.00264952,0.000491481,0.0004878545,0.001620713,0.001407093,1669.306,1656.975,0,99.26212,,
	08/24/2022 06:28:11.075,1701262.982,1609.84,217,6,-0.001059827,2.499966,-0.00264953,0.000477401,0.0004739045,0.001574528,0.00136632,1621.514,1609.633,0,99.26758,,
	08/24/2022 14:25:50.723,1.72992e+06,1568.39,226,6,-0.0010601,2.499968,-0.00265022,0.0004650458,0.0004617545,0.001533913,0.001330827,1579.372,1568.146,0,99.29226,,
	08/24/2022 22:11:09.878,1.75784e+06,1527.4,235,6,-0.00106008,2.49999,-0.00265019,0.0004527982,0.0004496488,0.001493651,0.001295439,1537.972,1527.187,0,99.30447,,
	08/25/2022 05:44:13.031,1.78502e+06,1487.68,244,6,-0.001059908,2.49999,-0.00264976,0.0004408791,0.000437953,0.001454517,0.001261235,1497.48,1487.44,0,99.3363,,
	08/25/2022 13:06:32.257,1.81156e+06,1456.01,253,6,-0.001060012,2.499992,-0.00265002,0.000432177,0.0004286639,0.001425802,0.001234274,1467.811,1455.795,0,99.1871,,
	08/25/2022 20:18:39.590,1.83749e+06,1419.45,262,6,-0.001060088,2.499998,-0.00265022,0.0004209439,0.0004179216,0.001388979,0.001202871,1429.655,1419.245,0,99.28201,,
	08/26/2022 03:20:28.899,1.8628e+06,1387.46,271,6,-0.001059864,2.499985,-0.00264964,0.0004110791,0.0004084324,0.001356504,0.00117508,1396.239,1387.296,0,99.35616,,
	08/26/2022 10:12:43.029,1887534.936,1355.51,280,6,-0.001060107,2.499987,-0.00265025,0.0004018421,0.0003991104,0.001326131,0.001147918,1364.858,1355.316,0,99.32022,,
	08/26/2022 16:56:13.270,1.91175e+06,1328.36,289,6,-0.001060019,2.5,-0.00265005,0.0003937048,0.0003910629,0.001299304,0.001124487,1337.177,1328.101,0,99.32896,,
	08/26/2022 23:30:56.919,1.93543e+06,1297.92,298,6,-0.001059821,2.499994,-0.00264955,0.000384563,0.0003820758,0.001269246,0.00109822,1306.207,1297.69,0,99.35324,,
	08/27/2022 05:56:52.618,1.95858e+06,1270.56,307,6,-0.001059839,2.499987,-0.00264958,0.0003764423,0.0003740264,0.001242522,0.00107472,1278.552,1270.337,0,99.35822,,
	08/27/2022 12:15:02.038,1.98127e+06,1245.79,316,6,-0.001060102,2.499994,-0.00265025,0.0003692379,0.0003667836,0.001218776,0.001053678,1254.101,1245.584,0,99.33528,,
	08/27/2022 18:26:12.842,2.00354e+06,1222.39,325,6,-0.001060093,2.499992,-0.00265022,0.0003623756,0.0003598934,0.001196164,0.001033658,1230.764,1222.188,0,99.31501,,
	08/28/2022 00:29:55.994,2.02537e+06,1197.532,334,6,-0.001060125,2.499968,-0.00265028,0.0003548192,0.0003526056,0.001171268,0.001012339,1205.149,1197.408,0,99.37613,,
	08/28/2022 06:26:32.265,2.04676e+06,1175.58,343,6,-0.001059931,2.499989,-0.00264982,0.0003482007,0.0003460366,0.001149464,0.0009932092,1182.646,1175.341,0,99.3785,,
	08/28/2022 12:16:33.567,2.06777e+06,1153.78,352,6,-0.001060046,2.499994,-0.00265011,0.0003417708,0.0003396989,0.001128257,0.0009747998,1160.792,1153.581,0,99.39378,,
	08/28/2022 18:00:41.345,2.08841e+06,1134.32,361,6,-0.001060068,2.499989,-0.00265016,0.0003361106,0.0003339513,0.001109572,0.0009580576,1141.559,1134.118,0,99.35755,,
	08/28/2022 23:38:24.600,2.10868e+06,1112.88,370,6,-0.001060149,2.499987,-0.00265036,0.0003296597,0.0003276494,0.00108832,0.0009397301,1119.651,1112.683,0,99.39016,,
	08/29/2022 05:09:58.050,2.12857e+06,1093.047,379,6,-0.001059867,2.5,-0.00264967,0.0003237535,0.0003217462,0.001068869,0.0009225605,1099.631,1092.841,0,99.38,,
	08/29/2022 10:35:55.064,2.14813e+06,1075.47,388,6,-0.001060137,2.499979,-0.00265032,0.000318483,0.0003166043,0.001051483,0.000907611,1081.767,1075.268,0,99.41012,,
	08/29/2022 15:56:37.365,2.16737e+06,1058.6,397,6,-0.001060013,2.499998,-0.00265003,0.0003133305,0.0003116627,0.001034445,0.0008932794,1064.191,1058.454,0,99.46774,,
	08/29/2022 21:12:11.238,2186303.145,1040.44,406,6,-0.001060031,2.499998,-0.00265008,0.0003081359,0.0003063162,0.00101731,0.0008777477,1046.561,1040.224,0,99.40945,,
	08/30/2022 02:22:20.145,2.20491e+06,1022.65,415,6,-0.001060116,2.499996,-0.00265029,0.0003029373,0.0003010952,0.001000167,0.0008625808,1028.894,1022.465,0,99.39193,,
	08/30/2022 20:11:37.350,2.2231e+06,994.8122,424,6,-0.001060113,2.5,-0.00265028,0.0002946049,0.0002929056,0.0009725451,0.0008385715,1000.586,994.6599,0,99.42321,,
	08/31/2022 01:08:39.138,2.24092e+06,980.6689,433,6,-0.001060176,2.499992,-0.00265043,0.0002904914,0.0002887288,0.0009589763,0.0008265853,986.6737,980.5273,0,99.39323,,
	08/31/2022 06:01:22.013,2.25849e+06,966.5463,442,6,-0.001059874,2.499935,-0.00264962,0.0002861189,0.0002845239,0.0009445205,0.0008143859,971.8163,966.4067,0,99.44254,,
	08/31/2022 10:49:46.110,2.27579e+06,952.1205,451,6,-0.001060135,2.499989,-0.00265033,0.0002820036,0.0002803393,0.0009309344,0.0008022852,957.824,951.9881,0,99.40984,,
	08/31/2022 15:34:14.288,2292859.192,939.6446,460,6,-0.001060065,2.499981,-0.00265014,0.0002782274,0.0002766354,0.0009184238,0.0007915659,944.9952,939.4939,0,99.42779,,
	08/31/2022 20:14:41.354,2309686.258,925.6778,469,6,-0.001060084,2.499989,-0.0026502,0.0002741379,0.0002725348,0.0009049455,0.0007796939,931.0871,925.5215,0,99.4152,,
	09/01/2022 00:51:01.516,2.32627e+06,912.5175,478,6,-0.001060068,2.499998,-0.00265017,0.0002702065,0.0002686541,0.0008919378,0.0007684411,917.6703,912.3779,0,99.42546,,
	09/01/2022 05:23:30.910,2.34262e+06,900.6079,487,6,-0.001060107,2.5,-0.00265027,0.0002666955,0.0002651513,0.0008803435,0.0007583225,905.7856,900.4507,0,99.42098,,
	09/01/2022 09:52:15.866,2.35874e+06,888.4648,496,6,-0.001060005,2.499989,-0.00265,0.0002629325,0.0002615633,0.0008679328,0.0007479173,892.9981,888.3214,0,99.47926,,
	09/01/2022 13:18:44.817,2.37113e+06,877.6894,503,6,-0.001060066,2.499989,-0.00265015,0.0002599121,0.0002584136,0.000857972,0.0007388045,882.7979,877.5472,0,99.42346,,