File: Cell-test-data/SiMP-LFP-SF1/JB1_SiMP-LFP-SF1_Channel_71_StatisticByStep.CSV
Date_Time                    ,Test Time (s),Step Time (s),Cycle Index,Step Index,Current (A),Voltage (V),Power (W),Charge Capacity (Ah),Discharge Capacity (Ah),Charge Energy (Wh),Discharge Energy (Wh),Charge Time (s),Discharge Time (s),V_Max_On_Cycle (V),Coulombic Efficiency (%),mAh/g
	08/05/2022 01:53:48.095,43200,43200,1.00,1.00,0,0.223279,0,0,0,0,0,0,0,0,0,,
	08/10/2022 07:11:14.519,494246,6555.44,9.00,6.00,-0.001060091,2.5,-0.00265023,0.001976434,0.001930089,0.006454647,0.00560134,6712.898,6554.502,0,97.65511,,
	08/11/2022 13:48:44.221,604496,5688.56,18.00,6.00,-0.001059954,2.499992,-0.00264988,0.001704821,0.001674726,0.005572237,0.004865639,5790.302,5687.729,0,98.23476,,
	08/12/2022 16:36:48.492,700980,5048.88,27.00,6.00,-0.001059963,2.499992,-0.0026499,0.001511936,0.001486362,0.004944164,0.004322208,5135.125,5048.125,0,98.30849,,
	08/13/2022 16:31:56.773,787089,4528.53,36.00,6.00,-0.001060113,2.499983,-0.00265026,0.001355478,0.001333246,0.004436011,0.003876935,4603.697,4527.858,0,98.35981,,
	08/14/2022 14:05:09.008,864681,4103.07,45.00,6.00,-0.001060127,2.499985,-0.0026503,0.001227184,0.001208015,0.004020074,0.003511161,4168.036,4102.462,0,98.43803,,
	08/15/2022 09:47:19.777,935612,3771.68,54.00,6.00,-0.001059913,2.499996,-0.00264978,0.001125973,0.001110412,0.003690897,0.003227635,3824.226,3771.123,0,98.61798,,
	08/16/2022 03:58:50.952,1.0011e+06,3508.32,63.00,6.00,-0.001059979,2.5,-0.00264995,0.001046584,0.001032782,0.00343136,0.003003505,3554.573,3507.758,0,98.68118,,
	08/16/2022 20:48:57.935,1.06171e+06,3240.55,72.00,6.00,-0.001059971,2.499985,-0.00264991,0.0009646629,0.0009539893,0.003166215,0.00277152,3276.369,3240.068,0,98.89354,,
	08/17/2022 12:37:03.963,1.1186e+06,3045.76,81.00,6.00,-0.001059936,2.499987,-0.00264983,0.0009072059,0.0008966153,0.002977486,0.002605405,3081.261,3045.306,0,98.83261,,
	08/18/2022 03:14:24.921,1.17124e+06,2817.15,90.00,6.00,-0.001059982,2.499992,-0.00264995,0.0008383831,0.0008293698,0.002755617,0.002405435,2847.559,2816.678,0,98.92491,,
	08/18/2022 16:57:27.729,1.22062e+06,2660.86,99.00,6.00,-0.001059954,2.499981,-0.00264986,0.000791457,0.0007833933,0.002602496,0.002271064,2688.099,2660.473,0,98.98116,,
	08/19/2022 05:56:27.356,1.26736e+06,2523.59,108.00,6.00,-0.001059855,2.499969,-0.0026496,0.0007502302,0.0007428907,0.002467943,0.002152615,2548.023,2523.189,0,99.0217,,
	08/19/2022 18:16:13.663,1.31175e+06,2400.63,117.00,6.00,-0.001060065,2.499975,-0.00265014,0.000713585,0.0007067989,0.002348199,0.002047168,2423.696,2400.29,0,99.04901,,
	08/20/2022 06:01:25.630,1.35406e+06,2291.74,126.00,6.00,-0.001060121,2.49999,-0.00265029,0.000681431,0.0006747764,0.002243072,0.001953651,2314.423,2291.416,0,99.02344,,
	08/20/2022 17:15:24.232,1.3945e+06,2192.54,135.00,6.00,-0.001060165,2.499996,-0.00265041,0.0006512754,0.0006455657,0.002144461,0.001868158,2211.972,2192.24,0,99.1233,,
	08/21/2022 04:01:19.044,1.43325e+06,2104.44,144.00,6.00,-0.001059841,2.499973,-0.00264957,0.0006249868,0.0006195669,0.002058372,0.001792134,2122.771,2104.109,0,99.1328,,
	08/21/2022 14:21:42.870,1.47047e+06,2025.92,153.00,6.00,-0.001060118,2.49999,-0.00265028,0.0006015131,0.0005964935,0.001981532,0.00172472,2043.061,2025.61,0,99.1655,,
	08/22/2022 00:19:34.655,1.50635e+06,1952.02,162.00,6.00,-0.001059882,2.5,-0.002649705,0.0005792984,0.0005746671,0.001908793,0.001660889,1967.618,1951.732,0,99.20052,,
	08/22/2022 09:56:07.948,1.54094e+06,1883.87,171.00,6.00,-0.001060165,2.499968,-0.00265038,0.0005590499,0.0005546028,0.00184244,0.001602209,1898.686,1883.596,0,99.20451,,
	08/22/2022 19:13:11.047,1.57436e+06,1821.77,180.00,6.00,-0.001060042,2.499987,-0.00265009,0.0005405829,0.0005363767,0.001781857,0.001549022,1836.114,1821.494,0,99.22192,,
	08/23/2022 04:12:23.369,1.60672e+06,1764.4,189.00,6.00,-0.00106006,2.499987,-0.00265014,0.0005234787,0.0005194868,0.001725759,0.001499589,1777.945,1764.13,0,99.23742,,
	08/23/2022 12:54:45.435,1.63806e+06,1711.36,198.00,6.00,-0.001060075,2.49999,-0.00265018,0.0005077053,0.000503876,0.001673944,0.001453972,1724.474,1711.096,0,99.24577,,
	08/23/2022 21:21:53.608,1.66849e+06,1662.82,207.00,6.00,-0.001060125,2.499949,-0.00265026,0.0004931918,0.0004895557,0.001626337,0.001412083,1675.019,1662.538,0,99.26274,,
	08/24/2022 05:34:19.388,1.69803e+06,1615.38,216.00,6.00,-0.001059878,2.49999,-0.00264968,0.0004787924,0.0004755511,0.001579115,0.001371085,1626.272,1615.162,0,99.32302,,
	08/24/2022 13:33:22.693,1.72677e+06,1573.2,225.00,6.00,-0.001060118,2.499998,-0.00265029,0.0004663361,0.000463179,0.001538166,0.001335008,1583.898,1572.95,0,99.32298,,
	08/24/2022 21:20:04.241,1.75478e+06,1531.77,234.00,6.00,-0.001059849,2.499992,-0.00264961,0.0004541842,0.0004509775,0.001498205,0.001299343,1542.591,1531.526,0,99.29397,,
	08/25/2022 04:54:27.564,1.78204e+06,1492.2,243.00,6.00,-0.001059896,2.499992,-0.00264973,0.0004423434,0.0004392769,0.001459348,0.00126514,1502.431,1492.016,0,99.30678,,
	08/25/2022 12:17:48.145,1.80864e+06,1459.46,252.00,6.00,-0.001060058,2.499996,-0.00265014,0.0004320335,0.0004296876,0.001425387,0.001237258,1467.361,1459.251,0,99.45701,,
	08/25/2022 19:31:10.200,1.83464e+06,1422.98,261.00,6.00,-0.00106007,2.499998,-0.00265017,0.0004219022,0.0004189493,0.001392092,0.001205796,1432.926,1422.743,0,99.30009,,
	08/26/2022 02:34:04.950,1.86002e+06,1390.8,270.00,6.00,-0.00105988,2.5,-0.0026497,0.0004123212,0.0004094132,0.001360621,0.001177956,1400.472,1390.62,0,99.29472,,
	08/26/2022 09:27:22.408,1.88481e+06,1359.34,279.00,6.00,-0.001060102,2.499975,-0.00265023,0.0004028837,0.0004002289,0.001329576,0.00115115,1368.419,1359.163,0,99.34105,,
	08/26/2022 16:11:47.472,1.90908e+06,1331.49,288.00,6.00,-0.001060063,2.499998,-0.00265016,0.0003945723,0.0003920132,0.001302143,0.001127268,1340.167,1331.318,0,99.35142,,
	08/26/2022 22:47:32.521,1.93282e+06,1301.17,297.00,6.00,-0.001059825,2.5,-0.00264956,0.0003855995,0.0003830225,0.001272644,0.001101007,1309.748,1300.957,0,99.33169,,
	08/27/2022 05:14:23.201,1.95604e+06,1272.85,306.00,6.00,-0.001060162,2.499989,-0.00265039,0.000377194,0.0003747531,0.001244981,0.001076844,1281.124,1272.608,0,99.35287,,
	08/27/2022 11:33:21.852,1.97877e+06,1248.96,315.00,6.00,-0.001060127,2.499998,-0.00265032,0.0003701086,0.0003677241,0.001221647,0.001056382,1257.058,1248.724,0,99.35573,,
	08/27/2022 17:45:19.427,2.00109e+06,1225.09,324.00,6.00,-0.001059991,2.499985,-0.00264996,0.0003629604,0.0003606634,0.001198067,0.001035876,1232.694,1224.863,0,99.36716,,
	08/27/2022 23:49:53.092,2.02296e+06,1200.47,333.00,6.00,-0.001059867,2.499998,-0.00264967,0.0003556173,0.0003533662,0.001173904,0.001014554,1207.869,1200.251,0,99.36699,,
	08/28/2022 05:47:13.770,2.04441e+06,1177.44,342.00,6.00,-0.001060137,2.499989,-0.00265033,0.0003487752,0.0003466687,0.001151362,0.0009950512,1184.625,1177.242,0,99.39603,,
	08/28/2022 11:37:58.732,2.06545e+06,1155.62,351.00,6.00,-0.001060093,2.5,-0.00265023,0.000342441,0.0003402433,0.001130461,0.0009763854,1163.041,1155.421,0,99.35825,,
	08/28/2022 17:22:45.235,2.08614e+06,1137.27,360.00,6.00,-0.001060118,2.499969,-0.00265026,0.0003368023,0.0003348388,0.001111863,0.0009606266,1143.925,1137.068,0,99.41702,,
	08/28/2022 23:01:11.811,2.10644e+06,1114.66,369.00,6.00,-0.001060109,2.499996,-0.00265027,0.0003303165,0.0003281815,0.001090479,0.0009412956,1121.928,1114.47,0,99.35365,,
	08/29/2022 04:33:25.125,2.12638e+06,1094.96,378.00,6.00,-0.001060104,2.499975,-0.00265023,0.0003243989,0.0003223924,0.001070983,0.0009244353,1101.745,1094.791,0,99.38147,,
	08/29/2022 09:59:57.550,2.14597e+06,1076.65,387.00,6.00,-0.001059841,2.499987,-0.00264959,0.0003189775,0.0003169754,0.001053092,0.0009087354,1083.399,1076.455,0,99.37236,,
	08/29/2022 15:21:14.336,2.16525e+06,1060.16,396.00,6.00,-0.001060068,2.499992,-0.00265016,0.0003140048,0.000312115,0.001036674,0.0008946282,1066.468,1059.961,0,99.39816,,
	08/29/2022 20:37:23.994,2.18422e+06,1042.34,405.00,6.00,-0.00106007,2.499971,-0.00265014,0.0003088345,0.0003068878,0.001019609,0.0008794164,1048.926,1042.157,0,99.36968,,
	08/30/2022 01:48:08.371,2.20286e+06,1024.88,414.00,6.00,-0.001060128,2.499977,-0.0026503,0.0003036181,0.0003017525,0.001002427,0.0008644808,1031.207,1024.738,0,99.38556,,
	08/30/2022 19:38:21.742,2.22111e+06,995.8963,423.00,6.00,-0.001060066,2.499985,-0.00265015,0.000294964,0.0002932254,0.0009737668,0.0008394464,1001.863,995.7597,0,99.41058,,
	08/31/2022 00:35:51.569,2.23896e+06,982.3234,432.00,6.00,-0.001059837,2.5,-0.00264959,0.0002909454,0.0002891653,0.0009604608,0.0008278227,988.2074,982.1754,0,99.38816,,
	08/31/2022 05:29:03.440,2.25655e+06,967.9960,441.00,6.00,-0.001059902,2.499996,-0.00264975,0.0002866158,0.000284954,0.0009461627,0.0008156579,973.5221,967.869,0,99.4202,,
	08/31/2022 10:17:55.974,2.27388e+06,953.6052,450.00,6.00,-0.001060127,2.499977,-0.00265029,0.0002823537,0.0002807615,0.0009320731,0.0008034981,959.0148,953.4605,0,99.4361,,
	08/31/2022 15:02:49.452,2.29097e+06,940.9500,459.00,6.00,-0.001060074,2.499977,-0.00265016,0.0002786926,0.0002770282,0.00091997,0.000792705,946.5731,940.782,0,99.40279,,
	08/31/2022 19:43:44.379,2.30783e+06,927.1842,468.00,6.00,-0.001060001,2.499994,-0.00265,0.0002745684,0.0002729657,0.0009063396,0.0007809196,932.5177,927.0374,0,99.4163,,
	09/01/2022 00:20:31.119,2.32444e+06,914.1355,477.00,6.00,-0.001059994,2.499992,-0.00264998,0.0002706825,0.0002691296,0.0008935143,0.0007698099,919.3625,913.9802,0,99.42632,,
	09/01/2022 04:53:24.321,2.34081e+06,901.4255,486.00,6.00,-0.001060012,2.5,-0.00265003,0.0002669769,0.0002653885,0.0008812749,0.0007589716,906.7204,901.3071,0,99.40502,,
	09/01/2022 09:22:34.191,2.35696e+06,889.0293,495.00,6.00,-0.001060066,2.499983,-0.00265015,0.0002632909,0.0002617394,0.0008691136,0.0007484246,894.2258,888.8833,0,99.4107,,
	09/01/2022 13:18:44.817,2.37113e+06,877.6894,503.00,6.00,-0.001060066,2.499989,-0.00265015,0.0002599121,0.0002584136,0.000857972,0.0007388045,882.7979,877.5472,0,99.42346,,