File: Cell-test-data/SiMP-LFP-SF10/JB2_SiMP-LFP-SF10_03C_Channel_86_StatisticByCycle.CSV
Date_Time                    ,Test Time (s),Step Time (s),Cycle Index,Step Index,Current (A),Voltage (V),Power (W),Charge Capacity (Ah),Discharge Capacity (Ah),Charge Energy (Wh),Discharge Energy (Wh),Charge Time (s),Discharge Time (s),V_Max_On_Cycle (V),Coulombic Efficiency (%),mAh/g
	07/21/2022 15:30:03.713,176123.117,58047,1,3,-0.0001589981,2.499993,-0.000397494,0.003306544,0.002563256,0.01091521,0.00760898,74866.11,58039.46,0,77.52071,,
	07/24/2022 09:26:55.856,413535,5683.826,5,6,-0.001059956,2.499972,-0.00264986,0.001753532,0.001673303,0.005763034,0.004879805,5955.829,5683.125,0,95.42472,,
	07/24/2022 21:11:54.084,455833.488,4913.43,9,6,-0.001060014,2.499993,-0.00265003,0.001502968,0.001446536,0.004942091,0.004213002,5103.823,4912.79,0,96.24534,,
	07/25/2022 07:28:53.374,492853,4350.39,13,6,-0.001059961,2.499928,-0.00264983,0.001323119,0.00128075,0.004356436,0.003720138,4493.877,4349.776,0,96.79779,,
	07/25/2022 16:39:16.882,525876,3903.56,17,6,-0.001060035,2.499997,-0.00265008,0.001185966,0.001149278,0.003907994,0.003327328,4027.406,3903.077,0,96.90646,,
	07/26/2022 00:49:50.977,555310,3444.41,21,6,-0.001060018,2.499946,-0.00264999,0.001050458,0.00101405,0.00346924,0.002917634,3567.978,3443.988,0,96.53408,,
	07/26/2022 07:59:39.076,581098,2992.26,25,6,-0.001059949,2.499997,-0.00264987,0.0009170893,0.0008809406,0.003036257,0.002518199,3114.989,2991.891,0,96.05833,,
	07/26/2022 14:10:11.866,603331,2562.08,29,6,-0.001060025,2.499993,-0.00265006,0.0007885442,0.0007543354,0.00261628,0.002142957,2677.804,2561.75,0,95.66178,,
	07/26/2022 19:26:10.648,622290,2158.49,33,6,-0.001060026,2.499993,-0.00265006,0.0006674309,0.0006354963,0.002218543,0.001792986,2266.537,2158.226,0,95.21529,,
	07/26/2022 23:48:55.162,638055,1793.79,37,6,-0.001060016,2.499999,-0.00265004,0.0005538143,0.0005281258,0.001846979,0.001479381,1880.815,1793.578,0,95.36154,,
	07/27/2022 03:27:49.081,651188,1497.15,41,6,-0.00106004,2.499999,-0.0026501,0.000461345,0.0004407674,0.001542425,0.001227436,1566.927,1496.948,0,95.53964,,
	07/27/2022 06:30:43.832,662163,1254.69,45,6,-0.001059952,2.499991,-0.00264987,0.0003855308,0.0003693668,0.001291703,0.001023419,1309.468,1254.527,0,95.80733,,
	07/27/2022 09:04:17.826,671377,1056.99,49,6,-0.001059917,2.499949,-0.00264974,0.000323507,0.000311169,0.001085716,0.000858607,1098.826,1056.853,0,96.1862,,
	07/27/2022 11:13:51.477,679151,894.1339,53,6,-0.001059991,2.499999,-0.00264998,0.0002731929,0.000263244,0.0009179355,0.0007239084,927.8893,894.0377,0,96.35828,,
	07/27/2022 13:03:24.060,685723,757.2598,57,6,-0.00106003,2.499982,-0.00265006,0.0002305563,0.0002229513,0.0007752372,0.0006114276,782.9215,757.1608,0,96.70148,,
	07/27/2022 14:37:15.907,691355.311,657.9485,61,6,-0.001060093,2.499955,-0.00265018,0.0001996275,0.0001937229,0.0006710638,0.0005303933,677.9382,657.8694,0,97.04218,,
	07/27/2022 15:58:45.173,696245,570.3905,65,6,-0.001060093,2.499982,-0.00265021,0.0001729783,0.0001679433,0.0005811213,0.0004592712,587.4336,570.3232,0,97.08923,,
	07/27/2022 17:09:31.128,700491,495.1818,69,6,-0.00106014,2.499984,-0.00265033,0.0001499006,0.0001457994,0.000503037,0.0003984442,509.0762,495.12,0,97.26405,,
	07/27/2022 18:10:42.301,704161.705,427.0676,73,6,-0.001060097,2.499707,-0.00264993,0.0001290254,0.0001257438,0.0004323739,0.0003434848,438.179,427.018,0,97.45663,,
	07/27/2022 19:02:48.920,707288,361.1288,77,6,-0.001060073,2.499852,-0.00265003,0.0001092363,0.0001063263,0.0003653128,0.0002905219,370.9627,361.089,0,97.33604,,
	07/27/2022 19:46:21.659,709901,299.3934,81,6,-0.00106009,2.499988,-0.00265021,9.052469E-05,8.815193E-05,0.0003019101,0.0002410145,307.4108,299.3687,0,97.37888,,
	07/27/2022 20:22:14.390,712054,246.801,85,6,-0.001060037,2.499995,-0.00265009,7.4476E-05,7.26653E-05,0.0002475432,0.0001988445,252.9402,246.7819,0,97.56875,,
	07/27/2022 20:52:07.028,713846,209.6823,89,6,-0.001060015,2.499932,-0.00264997,6.260338E-05,6.173739E-05,0.0002073757,0.0001690331,212.5898,209.6679,0,98.6167,,
	07/27/2022 21:18:13.742,715413,184.1393,93,6,-0.001060083,2.499972,-0.00265018,5.529898E-05,5.421611E-05,0.0001826788,0.0001485389,187.787,184.1179,0,98.0418,,
	07/27/2022 21:41:20.248,716800,165.1933,97,6,-0.001060012,2.499953,-0.00264998,4.94273E-05,4.863695E-05,0.0001629085,0.0001332799,167.8454,165.1792,0,98.40098,,
	07/27/2022 22:02:25.235,718065,151.6971,101,6,-0.001060057,2.499991,-0.00265013,4.545229E-05,4.466504E-05,0.0001495263,0.0001224194,154.3471,151.6882,0,98.26797,,
	07/27/2022 22:21:56.070,719235,142.0068,105,6,-0.001060018,2.499843,-0.00264988,4.244232E-05,4.181162E-05,0.0001394111,0.0001145922,144.1255,142.0009,0,98.51398,,
	07/27/2022 22:40:10.847,720330,132.762,109,6,-0.001059979,2.499948,-0.00264989,3.963206E-05,3.908712E-05,0.0001300119,0.0001071167,134.6078,132.7514,0,98.62501,,
	07/27/2022 22:57:21.791,721361,125.2591,113,6,-0.001059963,2.499976,-0.00264988,3.743107E-05,3.687973E-05,0.0001226588,0.000101061,127.1391,125.2563,0,98.52704,,
	07/27/2022 23:13:42.535,722342,120.2053,117,6,-0.001059962,2.499967,-0.00264987,3.584585E-05,3.539149E-05,0.000117368,9.696872E-05,121.7546,120.1968,0,98.73248,,
	07/27/2022 23:29:23.751,723283,114.267,121,6,-0.001059975,2.499984,-0.00264992,3.416575E-05,3.364385E-05,0.0001117712,9.21621E-05,116.0201,114.2643,0,98.47247,,
	07/27/2022 23:44:30.077,724189,111.03,125,6,-0.001060012,2.499972,-0.00265,3.322796E-05,3.269055E-05,0.0001086326,8.954637E-05,112.8633,111.0249,0,98.38268,,
	07/27/2022 23:59:01.560,725061,106.6437,129,6,-0.001059998,2.499978,-0.00264997,3.185456E-05,3.14005E-05,0.0001040842,8.59959E-05,108.1922,106.6413,0,98.57458,,
	07/28/2022 00:13:05.048,725904.452,103.4307,133,6,-0.001059993,2.499995,-0.00264998,3.091506E-05,3.045454E-05,0.0001009633,8.338659E-05,104.9947,103.4311,0,98.51038,,
	07/28/2022 00:26:42.710,726722,100.1421,137,6,-0.001060012,2.499993,-0.00265002,2.992388E-05,2.948458E-05,9.767943E-05,8.071582E-05,101.6323,100.137,0,98.53196,,
	07/28/2022 00:39:57.641,727517,97.4651,141,6,-0.001060012,2.499951,-0.00264998,2.917344E-05,2.869818E-05,9.518545E-05,7.85507E-05,99.0678,97.4626,0,98.37093,,
	07/28/2022 00:52:52.866,728292,95.182,145,6,-0.001060042,2.49998,-0.00265008,2.849152E-05,2.802614E-05,9.291946E-05,7.669505E-05,96.7594,95.1809,0,98.3666,,
	07/28/2022 01:05:27.947,729047,92.8454,149,6,-0.001060037,2.499986,-0.00265008,2.774944E-05,2.733821E-05,9.047196E-05,7.480005E-05,94.2309,92.8438,0,98.51807,,
	07/28/2022 01:17:48.071,729787,90.9572,153,6,-0.001060023,2.499997,-0.00265005,2.721933E-05,2.67806E-05,8.871774E-05,7.326209E-05,92.4375,90.9526,0,98.38816,,
	07/28/2022 01:29:53.490,730513,89.3059,157,6,-0.001060025,2.499875,-0.00264993,2.668862E-05,2.6294E-05,8.696045E-05,7.191573E-05,90.6281,89.2987,0,98.5214,,
	07/28/2022 01:41:44.454,731224,87.5029,161,6,-0.001059975,2.499991,-0.00264993,2.618403E-05,2.576253E-05,8.529804E-05,7.045405E-05,88.9368,87.4984,0,98.39025,,
	07/28/2022 01:53:21.867,731921,85.9078,165,6,-0.001059975,2.499988,-0.00264992,2.570722E-05,2.52946E-05,8.373291E-05,6.916995E-05,87.3148,85.9061,0,98.39494,,
	07/28/2022 02:04:46.854,732606,84.3165,169,6,-0.001060004,2.499963,-0.00264997,2.523173E-05,2.482545E-05,8.216198E-05,6.786994E-05,85.6962,84.3131,0,98.38982,,
	07/28/2022 02:16:00.126,733280,82.9572,173,6,-0.001059987,2.499982,-0.00264995,2.48158E-05,2.44257E-05,8.07889E-05,6.676977E-05,84.2846,82.9548,0,98.428,,
	07/28/2022 02:27:03.254,733943,81.7017,177,6,-0.001060012,2.499972,-0.00265,2.444189E-05,2.405586E-05,7.955838E-05,6.574828E-05,83.0044,81.6986,0,98.42061,,
	07/28/2022 02:37:56.523,734596,80.5714,181,6,-0.001060026,2.499984,-0.00265005,2.411248E-05,2.372355E-05,7.847716E-05,6.483704E-05,81.9017,80.5695,0,98.38699,,
	07/28/2022 02:48:40.635,735240,79.3051,185,6,-0.001059993,2.499988,-0.00264997,2.375309E-05,2.335055E-05,7.729346E-05,6.380622E-05,80.6801,79.3066,0,98.30529,,
	07/28/2022 02:59:15.139,735875,78.1237,189,6,-0.001059986,2.49997,-0.00264993,2.342026E-05,2.3003E-05,7.620166E-05,6.285009E-05,79.546,78.1235,0,98.2184,,
	07/28/2022 03:09:40.518,736500,77.1492,193,6,-0.001059979,2.499928,-0.00264987,2.308732E-05,2.271427E-05,7.511507E-05,6.205386E-05,78.4184,77.1456,0,98.38418,,
	07/28/2022 03:19:57.538,737117,76.1237,197,6,-0.001060002,2.49994,-0.00264994,2.279351E-05,2.241257E-05,7.414588E-05,6.121981E-05,77.4016,76.1179,0,98.32871,,
	07/28/2022 03:27:35.707,737575,75.407,200,6,-0.001060084,2.499887,-0.00265009,2.259749E-05,2.220306E-05,7.350342E-05,6.06491E-05,76.7364,75.4027,0,98.2545,,