File: Cell-test-data/SiMP-LFP-PS10/JB6_SiMPs-LFP-POF10-A8_Channel_39_StatisticByCycle.CSV
Date_Time                    ,Test Time (s),Step Time (s),Cycle Index,Step Index,Current (A),Voltage (V),Power (W),Charge Capacity (Ah),Discharge Capacity (Ah),Charge Energy (Wh),Discharge Energy (Wh),Charge Time (s),Discharge Time (s),V_Max_On_Cycle (V),Coulombic Efficiency (%),mAh/g
	05/16/2022 16:39:38.027,177954,60714.8,1,3,-0.0001589872,2.499997,-0.000397468,0.003269507,0.002681054,0.01082127,0.007958874,74029.99,60707.39,0,82.00176,,
	05/19/2022 18:34:40.330,444057,7289.28,5,6,-0.00105983,2.499986,-0.00264956,0.002183396,0.002146077,0.00712439,0.006207123,7415.319,7288.338,0,98.29079,,
	05/20/2022 10:25:14.351,501091,6962.13,9,6,-0.001060124,2.499995,-0.0026503,0.002081888,0.002049861,0.006786154,0.005922714,7069.856,6961.243,0,98.46164,,
	05/21/2022 01:38:05.391,555862,6684.41,13,6,-0.001060162,2.499986,-0.00265039,0.001999911,0.001968117,0.006515989,0.005685845,6792.273,6683.567,0,98.41023,,
	05/21/2022 16:12:44.180,608341,6432.24,17,6,-0.00105983,2.499991,-0.00264957,0.001919046,0.001893607,0.006253811,0.005471624,6517.622,6431.353,0,98.67439,,
	05/22/2022 06:14:45.327,658862,6183.26,21,6,-0.001060133,2.499995,-0.00265033,0.001845077,0.001820421,0.006014084,0.005259363,6266.068,6182.448,0,98.6637,,
	05/22/2022 19:47:13.234,707610,5981.21,25,6,-0.001060148,2.499997,-0.00265037,0.001785685,0.001760912,0.005820137,0.005089602,6064.674,5980.47,0,98.61269,,
	05/23/2022 08:51:38.927,754675,5774.09,29,6,-0.001060134,2.499974,-0.00265031,0.001721615,0.001700016,0.005613812,0.004913245,5846.816,5773.372,0,98.74545,,
	05/23/2022 21:30:36.983,800213,5589.24,33,6,-0.001060156,2.499999,-0.00265039,0.001665727,0.001645479,0.005432987,0.004756664,5657.009,5588.521,0,98.78442,,
	05/24/2022 09:45:38.058,844314,5417.56,37,6,-0.001060138,2.499978,-0.00265032,0.001613485,0.001595159,0.005263262,0.00461191,5479.679,5416.86,0,98.86421,,
	05/24/2022 21:38:26.788,887083,5254.97,41,6,-0.001060117,2.499991,-0.00265028,0.001565189,0.001547303,0.005106762,0.004474378,5315.296,5254.338,0,98.85722,,
	05/25/2022 09:12:42.879,928739,5127.81,45,6,-0.001060136,2.499997,-0.00265034,0.001530265,0.001509741,0.00499047,0.004370586,5197.435,5127.186,0,98.65876,,
	05/25/2022 20:24:02.195,969019,4948.64,49,6,-0.001060154,2.499993,-0.00265038,0.00147488,0.001456988,0.00481336,0.004214828,5008.87,4948.008,0,98.78686,,
	05/26/2022 07:15:54.658,1.00813e+06,4808.64,53,6,-0.001060145,2.499999,-0.00265036,0.00143226,0.001415808,0.004675245,0.004096387,4863.891,4808.029,0,98.85136,,
	05/26/2022 17:49:23.452,1.04614e+06,4668.25,57,6,-0.001060109,2.499993,-0.00265027,0.001390139,0.001374459,0.004538953,0.003976723,4720.807,4667.485,0,98.87202,,
	05/27/2022 04:04:23.383,1083039.709,4537.01,61,6,-0.001060117,2.499991,-0.00265028,0.001351122,0.001335815,0.00441218,0.003865311,4588.224,4536.208,0,98.86707,,
	05/27/2022 14:02:39.718,1.11894e+06,4417.93,65,6,-0.001060094,2.499995,-0.00265023,0.001315672,0.00130076,0.00429691,0.003764305,4467.816,4417.201,0,98.86662,,
	05/27/2022 23:44:52.377,1153868.703,4296.501,69,6,-0.001060152,2.499988,-0.00265037,0.001279184,0.001264957,0.004178652,0.003660227,4343.984,4295.709,0,98.88776,,
	05/28/2022 09:11:15.080,1.18785e+06,4183.18,73,6,-0.001060113,2.499993,-0.00265028,0.001244762,0.001231632,0.004066834,0.003564051,4227.058,4182.382,0,98.94519,,
	05/28/2022 18:23:45.939,1.221e+06,4079.59,77,6,-0.001060113,2.499978,-0.00265026,0.00121507,0.001201063,0.003969723,0.003476161,4126.282,4078.83,0,98.84721,,
	05/29/2022 03:21:27.842,1.25326e+06,3970.95,81,6,-0.001060127,2.499993,-0.00265031,0.001181796,0.00116917,0.00386205,0.003383188,4013.179,3970.289,0,98.93164,,
	05/29/2022 12:06:07.260,1.28474e+06,3884.44,85,6,-0.001059852,2.499999,-0.00264963,0.001155862,0.001143592,0.003777054,0.003309729,3925.181,3883.843,0,98.9384,,
	05/29/2022 20:38:52.664,1315508.99,3791.23,89,6,-0.00106015,2.499997,-0.00265037,0.001128282,0.001116232,0.003687136,0.003230555,3831.809,3790.521,0,98.93198,,
	05/30/2022 04:58:41.012,1.3455e+06,3696.27,93,6,-0.001060112,2.499993,-0.00265027,0.001098142,0.001088271,0.003589408,0.003149001,3729.118,3695.571,0,99.10117,,
	05/30/2022 13:07:05.851,1374802.177,3612.3,97,6,-0.001060175,2.499997,-0.00265043,0.00107449,0.001063431,0.003511979,0.00307719,3648.952,3611.498,0,98.97073,,
	05/30/2022 21:04:31.311,1.40345e+06,3531.38,101,6,-0.001060145,2.499999,-0.00265036,0.001051992,0.001039732,0.003438833,0.003008198,3572.607,3530.731,0,98.83459,,
	05/31/2022 04:51:33.047,1431469.373,3454.34,105,6,-0.001060143,2.499976,-0.00265033,0.001027249,0.00101702,0.003358358,0.002942021,3488.354,3453.679,0,99.00415,,
	05/31/2022 12:28:16.066,1458872.392,3380.99,109,6,-0.001060123,2.499984,-0.00265029,0.001005378,0.0009954444,0.00328691,0.002879476,3414.316,3380.387,0,99.01191,,
	05/31/2022 19:54:57.789,1.48567e+06,3308.22,113,6,-0.001060101,2.499999,-0.00265025,0.0009832537,0.0009740409,0.003214724,0.002817448,3339.154,3307.683,0,99.06303,,
	06/01/2022 03:12:34.108,1.51193e+06,3238.59,117,6,-0.001059823,2.49999,-0.00264955,0.0009625801,0.0009534509,0.003147309,0.002757638,3268.814,3237.943,0,99.05159,,
	06/01/2022 10:20:45.135,1537621.461,3172.39,121,6,-0.001059863,2.499991,-0.00264965,0.0009425666,0.000934011,0.003082043,0.002700985,3200.904,3171.794,0,99.09232,,
	06/01/2022 17:20:14.183,1.56279e+06,3106.16,125,6,-0.001060112,2.499993,-0.00265027,0.0009232136,0.0009145266,0.003018941,0.002644239,3135.203,3105.605,0,99.05905,,
	06/02/2022 00:11:05.978,1.58744e+06,3043.27,129,6,-0.001060057,2.499995,-0.00265014,0.000904873,0.0008960474,0.002958975,0.002590412,3072.914,3042.835,0,99.02467,,
	06/02/2022 06:53:36.611,1.61159e+06,2983.053,133,6,-0.001060145,2.49999,-0.00265035,0.0008864016,0.0008782752,0.002898694,0.002538416,3010.083,2982.483,0,99.08321,,
	06/02/2022 13:28:18.895,1.63528e+06,2924.536,137,6,-0.001060162,2.499999,-0.0026504,0.0008691734,0.0008610616,0.002842415,0.002488197,2951.643,2924.029,0,99.06673,,
	06/02/2022 19:55:09.954,1658486.28,2862.31,141,6,-0.001060101,2.499999,-0.00265025,0.000851442,0.0008427102,0.002784435,0.002434585,2891.517,2861.71,0,98.97446,,
	06/03/2022 02:14:06.226,1.68122e+06,2806.48,145,6,-0.001060103,2.499993,-0.00265025,0.000834738,0.0008262814,0.002729825,0.002386809,2834.662,2805.903,0,98.98693,,
	06/03/2022 08:25:32.992,1.70351e+06,2754.46,149,6,-0.001060089,2.499988,-0.00265021,0.0008179301,0.0008109747,0.002674995,0.002342203,2777.544,2753.959,0,99.14964,,
	06/03/2022 14:29:39.574,1725355.9,2696.618,153,6,-0.001060076,2.499991,-0.00265018,0.0008016439,0.0007939358,0.002621752,0.002292461,2722.277,2696.073,0,99.03847,,
	06/03/2022 20:25:57.029,1.74673e+06,2639.04,157,6,-0.001060094,2.499991,-0.00265023,0.0007839903,0.0007769638,0.002564121,0.002242831,2662.333,2638.473,0,99.10374,,
	06/04/2022 02:14:49.068,1.76767e+06,2581.61,161,6,-0.001060138,2.499991,-0.00265034,0.0007679411,0.0007600801,0.002511593,0.002193715,2607.961,2581.17,0,98.97636,,
	06/04/2022 07:55:46.901,1788123.227,2521.53,165,6,-0.001060113,2.49998,-0.00265026,0.0007504914,0.0007424053,0.002454609,0.00214234,2549.014,2521.109,0,98.92255,,
	06/04/2022 13:28:42.748,1.8081e+06,2461.15,169,6,-0.001060111,2.499995,-0.00265027,0.000732965,0.0007245933,0.002397289,0.002090469,2489.03,2460.587,0,98.85784,,
	06/04/2022 18:53:33.176,1.82759e+06,2402.23,173,6,-0.001060103,2.499969,-0.00265022,0.0007144209,0.0007072622,0.002336852,0.002039762,2426.084,2401.758,0,98.99796,,
	06/05/2022 00:10:39.205,1.84662e+06,2341.71,177,6,-0.001060106,2.499995,-0.00265026,0.0006971241,0.0006894635,0.002280272,0.001988053,2367.368,2341.304,0,98.90112,,
	06/05/2022 05:19:49.401,1.86517e+06,2282.65,181,6,-0.001060136,2.499997,-0.00265034,0.0006799211,0.0006720849,0.00222409,0.00193744,2308.962,2282.294,0,98.84747,,
	06/05/2022 10:21:15.522,1.88325e+06,2226.77,185,6,-0.001060152,2.499991,-0.00265037,0.0006633457,0.0006555559,0.002169855,0.001889467,2252.639,2226.142,0,98.82567,,
	06/05/2022 15:14:59.067,1.90088e+06,2167.19,189,6,-0.001060113,2.499991,-0.00265027,0.00064581,0.0006380004,0.002112552,0.001838333,2193.167,2166.635,0,98.79073,,
	06/05/2022 20:00:34.429,1.91801e+06,2105.33,193,6,-0.001060113,2.49999,-0.00265027,0.0006272928,0.000619816,0.002051965,0.001785431,2130.246,2104.782,0,98.80808,,
	06/06/2022 00:38:31.210,1934687.536,2050.94,197,6,-0.001060154,2.499999,-0.00265038,0.0006108487,0.000603804,0.001998161,0.001738962,2074.354,2050.418,0,98.84674,,
	06/06/2022 04:01:52.383,1.94689e+06,2006.766,200,6,-0.001060111,2.499991,-0.00265027,0.0005973146,0.0005907998,0.001953878,0.001701191,2028.412,2006.281,0,98.90932,,