File: Cell-test-data/SiMP-LFP-PS10/JB6_SiMPs-LFP-POF10-A8_Channel_39_StatisticByStep.CSV
Date_Time                    ,Test Time (s),Step Time (s),Cycle Index,Step Index,Current (A),Voltage (V),Power (W),Charge Capacity (Ah),Discharge Capacity (Ah),Charge Energy (Wh),Discharge Energy (Wh),Charge Time (s),Discharge Time (s),V_Max_On_Cycle (V),Coulombic Efficiency (%),mAh/g
	05/15/2022 03:13:43.675,43200,43200,1.00,1.00,0,0.3161745,0,0,0,0,0,0,0,0,0,,
	05/19/2022 12:25:17.699,421894,7957.68,4.00,5.00,0.001060053,3.500001,0.00371019,0.002342818,4.902772E-10,0.007661832,1.225735E-09,7956.635,0.0111,0,2.092681E-05,,
	05/20/2022 02:34:54.697,472871,7111.76,7.00,6.00,-0.001060145,2.499988,-0.00265035,0.002125907,0.002093994,0.006932617,0.006052299,7219.77,7110.791,0,98.49883,,
	05/20/2022 16:12:08.183,521905,6935.01,11.00,5.00,0.001059987,3.500001,0.00370996,0.002041709,5.301035E-10,0.006652798,1.325243E-09,6934.146,0.0018,0,2.596372E-05,,
	05/21/2022 05:19:52.837,569169,6605.4,14.00,6.00,-0.001060122,2.499978,-0.00265028,0.001973167,0.00194476,0.006430947,0.005617145,6701.155,6604.564,0,98.56033,,
	05/21/2022 18:00:25.942,614802,6461.73,18.00,5.00,0.001059977,3.500028,0.00370995,0.001902309,1.97265E-09,0.006198426,4.931717E-09,6460.867,0.0067,0,0.0001036977,,
	05/22/2022 06:14:45.327,658862,6183.26,21.00,6.00,-0.001060133,2.499995,-0.00265033,0.001845077,0.001820421,0.006014084,0.005259363,6266.068,6182.448,0,98.6637,,
	05/22/2022 18:07:32.000,701628,6065.48,25.00,5.00,0.001059962,3.500005,0.00370987,0.001785684,3.120709E-09,0.005820133,7.801494E-09,6064.671,0.0093,0,0.0001747626,,
	05/23/2022 05:37:57.232,743054,5819.32,28.00,6.00,-0.001060175,2.499999,-0.00265044,0.001734744,0.001713384,0.005656238,0.004951933,5891.4,5818.611,0,98.7687,,
	05/23/2022 16:49:16.420,783333,5705.21,32.00,5.00,0.001060019,3.500003,0.00371007,0.001679723,5.183245E-09,0.005478043,1.295797E-08,5704.514,0.0176,0,0.0003085774,,
	05/24/2022 03:40:59.433,822436,5500.17,35.00,6.00,-0.001060131,2.499997,-0.00265032,0.00163892,0.001619382,0.005345812,0.004681588,5566.011,5499.444,0,98.80785,,
	05/24/2022 14:15:53.264,860530,5400.36,39.00,5.00,0.001060082,3.500007,0.00371029,0.001590001,3.151094E-09,0.005187297,7.877414E-09,5399.667,0.009699999,0,0.0001981819,,
	05/25/2022 00:33:22.709,897579,5216.62,42.00,6.00,-0.001060189,2.499999,-0.00265047,0.001554312,0.001535932,0.005071357,0.004441768,5278.576,5215.954,0,98.81745,,
	05/25/2022 10:38:05.558,933862,5122.65,46.00,5.00,0.001060035,3.500012,0.00371014,0.001508172,2.650665E-09,0.004921036,6.626673E-09,5122.002,0.009,0,0.0001757534,,
	05/25/2022 20:24:02.195,969019,4948.64,49.00,6.00,-0.001060154,2.499993,-0.00265038,0.00147488,0.001456988,0.00481336,0.004214828,5008.87,4948.008,0,98.78686,,
	05/26/2022 05:55:45.990,1.00332e+06,4864.51,53.00,5.00,0.001060053,3.500012,0.0037102,0.001432258,3.916913E-09,0.004675239,9.79194E-09,4863.885,0.0108,0,0.0002734782,,
	05/26/2022 15:12:53.511,1.03675e+06,4701.56,56.00,6.00,-0.001060126,2.499984,-0.0026503,0.001401813,0.001384233,0.004576228,0.004004905,4760.449,4700.782,0,98.74584,,
	05/27/2022 00:16:07.936,1.06934e+06,4623.96,60.00,5.00,0.001060127,3.500014,0.00371046,0.001361421,2.090597E-09,0.004445593,5.226233E-09,4623.239,0.0071,0,0.0001535599,,
	05/27/2022 09:05:30.350,1.10111e+06,4476.99,63.00,6.00,-0.001060109,2.499986,-0.00265026,0.001332539,0.001318155,0.004351745,0.003814177,4525.109,4476.3,0,98.92056,,
	05/27/2022 17:43:15.894,1.13217e+06,4407.29,67.00,5.00,0.001060088,3.500001,0.00371031,0.00129763,1.708037E-09,0.004238281,4.269967E-09,4406.577,0.0047,0,0.0001316275,,
	05/28/2022 02:07:52.954,1.16245e+06,4266.17,70.00,6.00,-0.001060145,2.499997,-0.00265036,0.001270271,0.001256022,0.004149691,0.003634436,4313.69,4265.506,0,98.87827,,
	05/28/2022 10:21:20.362,1.19206e+06,4205.25,74.00,5.00,0.001060056,3.500003,0.0037102,0.001238137,2.237971E-09,0.004044819,5.595088E-09,4204.575,0.0076,0,0.0001807531,,
	05/28/2022 18:23:45.939,1.221e+06,4079.59,77.00,6.00,-0.001060113,2.499978,-0.00265026,0.00121507,0.001201063,0.003969723,0.003476161,4126.282,4078.83,0,98.84721,,
	05/29/2022 02:15:16.865,1.24929e+06,4013.95,81.00,5.00,0.001060165,3.500005,0.00371058,0.001181794,2.238203E-09,0.003862044,5.595128E-09,4013.173,0.0068,0,0.0001893903,,
	05/29/2022 09:55:56.831,1.27693e+06,3903.44,84.00,6.00,-0.001060103,2.499982,-0.00265024,0.001160593,0.001149261,0.003793014,0.003325704,3941.21,3902.681,0,99.0236,,
	05/29/2022 17:28:16.705,1.30407e+06,3855.44,88.00,5.00,0.001060023,3.50001,0.00371009,0.001135038,1.648991E-09,0.003709451,4.122289E-09,3854.624,0.0056,0,0.0001452807,,
	05/30/2022 00:50:26.020,1.3306e+06,3740.27,91.00,6.00,-0.001060117,2.499995,-0.00265029,0.001113802,0.001101251,0.003640229,0.003186902,3782.353,3739.731,0,98.87315,,
	05/30/2022 08:03:19.908,1.35658e+06,3690.45,95.00,5.00,0.001060162,3.500001,0.00371057,0.001086573,1.767229E-09,0.003551721,4.417988E-09,3689.84,0.0052,0,0.0001626424,,
	05/30/2022 15:07:24.736,1.38202e+06,3590.89,98.00,6.00,-0.001060138,2.499991,-0.00265034,0.001068059,0.001057204,0.00349123,0.003058987,3627.232,3590.213,0,98.98369,,
	05/30/2022 22:03:37.994,1.40699e+06,3546.65,102.00,5.00,0.001060086,3.500003,0.0037103,0.001044151,1.884675E-09,0.003413328,4.71171E-09,3545.93,0.0056,0,0.0001804983,,
	05/31/2022 04:51:33.047,1.43147e+06,3454.34,105.00,6.00,-0.001060143,2.499976,-0.00265033,0.001027249,0.00101702,0.003358358,0.002942021,3488.354,3453.679,0,99.00415,,
	05/31/2022 11:31:55.052,1.45549e+06,3414.96,109.00,5.00,0.001060082,3.500007,0.00371029,0.001005377,2.12032E-09,0.003286904,5.300474E-09,3414.311,0.0064,0,0.000210898,,
	05/31/2022 18:04:09.843,1.47903e+06,3324.5,112.00,6.00,-0.001060134,2.499991,-0.00265033,0.0009884743,0.0009787147,0.003231886,0.002830963,3356.947,3323.863,0,99.01265,,
	06/01/2022 00:29:51.470,1.50217e+06,3288.74,116.00,5.00,0.001060099,3.50001,0.00371036,0.0009682789,1.707844E-09,0.003166076,4.269397E-09,3288.186,0.0047,0,0.0001763793,,
	06/01/2022 06:47:44.439,1.52484e+06,3204.33,119.00,6.00,-0.001060117,2.499999,-0.00265029,0.0009519862,0.0009434397,0.00311272,0.002728413,3232.897,3203.887,0,99.10225,,
	06/01/2022 12:59:17.952,1.54713e+06,3172.77,123.00,5.00,0.001060077,3.500014,0.00371028,0.0009340823,2.120268E-09,0.003054118,5.300887E-09,3172.194,0.0061,0,0.0002269894,,
	06/01/2022 19:03:47.138,1.569e+06,3090.96,126.00,6.00,-0.00106005,2.499991,-0.00265012,0.0009191601,0.0009100665,0.003005518,0.002631229,3121.454,3090.544,0,99.01067,,
	06/02/2022 01:02:02.081,1.5905e+06,3056.07,130.00,5.00,0.001060042,3.50001,0.00371016,0.0008997384,1.707991E-09,0.002942268,4.270223E-09,3055.497,0.0048,0,0.000189832,,
	06/02/2022 06:53:36.611,1.61159e+06,2983.05,133.00,6.00,-0.001060145,2.49999,-0.00265035,0.0008864016,0.0008782752,0.002898694,0.002538416,3010.083,2982.483,0,99.08321,,
	06/02/2022 12:39:34.337,1.63235e+06,2952.11,137.00,5.00,0.001060109,3.50001,0.00371039,0.0008691719,1.766868E-09,0.002842409,4.417099E-09,2951.638,0.006,0,0.0002032818,,
	06/02/2022 18:19:15.472,1.65273e+06,2881.99,140.00,6.00,-0.001060115,2.499997,-0.00265028,0.0008571292,0.0008485317,0.002802763,0.00245188,2910.855,2881.463,0,98.99693,,
	06/02/2022 23:53:01.105,1.67276e+06,2850.26,144.00,5.00,0.001060151,3.500012,0.00371054,0.0008391902,5.595041E-10,0.002744325,1.398755E-09,2849.756,0.0019,0,6.667191E-05,,
	06/03/2022 05:20:41.644,1.69242e+06,2779.28,147.00,6.00,-0.001060064,2.499993,-0.00265015,0.0008257465,0.0008183165,0.002700389,0.002363677,2804.096,2778.888,0,99.10021,,
	06/03/2022 10:43:08.330,1.71176e+06,2752.2,151.00,5.00,0.001060172,3.50001,0.00371061,0.0008102807,1.767076E-09,0.002649979,4.417572E-09,2751.833,0.0048,0,0.0002180819,,
	06/03/2022 15:59:26.868,1.73074e+06,2680.18,154.00,6.00,-0.001060101,2.499978,-0.00265023,0.0007970022,0.0007891197,0.002606696,0.002278232,2706.558,2679.712,0,99.01098,,
	06/03/2022 21:10:10.933,1.74939e+06,2653.87,158.00,5.00,0.001059828,3.50001,0.00370941,0.0007813269,2.061307E-09,0.002555422,5.152642E-09,2653.314,0.0061,0,0.0002638213,,
	06/04/2022 02:14:49.068,1.76767e+06,2581.61,161.00,6.00,-0.001060138,2.499991,-0.00265034,0.0007679411,0.0007600801,0.002511593,0.002193715,2607.961,2581.17,0,98.97636,,
	06/04/2022 07:13:45.344,1.7856e+06,2549.43,165.00,5.00,0.00105987,3.500018,0.00370956,0.0007504899,2.06119E-09,0.002454604,5.152827E-09,2549.01,0.0061,0,0.000274646,,
	06/04/2022 12:06:12.014,1.80315e+06,2476.49,168.00,6.00,-0.001060164,2.49999,-0.0026504,0.0007369809,0.0007291556,0.00241042,0.002103668,2502.669,2476.083,0,98.93818,,
	06/04/2022 16:52:48.770,1.82035e+06,2442.65,172.00,5.00,0.001060071,3.500001,0.00371025,0.0007191104,1.85535E-09,0.002352186,4.638192E-09,2442.059,0.0056,0,0.0002580062,,
	06/04/2022 21:33:06.358,1.83716e+06,2373.33,175.00,6.00,-0.001060124,2.499993,-0.0026503,0.0007060519,0.0006988054,0.002309537,0.00201517,2397.696,2373.002,0,98.97367,,
	06/05/2022 02:07:38.133,1.85363e+06,2338.42,179.00,5.00,0.001060071,3.500009,0.00371026,0.000688479,5.889439E-10,0.002252032,1.472354E-09,2338.048,0.002,0,8.554276E-05,,
	06/05/2022 06:35:51.954,1.86973e+06,2269.11,182.00,6.00,-0.001060118,2.499999,-0.00265029,0.0006752156,0.0006679989,0.002208654,0.001925647,2292.982,2268.445,0,98.93119,,
	06/05/2022 10:58:31.370,1.88549e+06,2235.82,186.00,5.00,0.001060053,3.500005,0.00371019,0.0006582282,1.501897E-09,0.002153018,3.754705E-09,2235.304,0.0044,0,0.0002281727,,
	06/05/2022 15:14:59.067,1.90088e+06,2167.19,189.00,6.00,-0.001060113,2.499991,-0.00265027,0.00064581,0.0006380004,0.002112552,0.001838333,2193.167,2166.635,0,98.79073,,
	06/05/2022 19:25:29.075,1.91591e+06,2130.68,193.00,5.00,0.001060068,3.500009,0.00371025,0.0006272914,1.766695E-09,0.00205196,4.41654E-09,2130.241,0.0051,0,0.0002816386,,
	06/05/2022 23:29:45.470,1.93056e+06,2065.36,196.00,6.00,-0.001060154,2.499978,-0.00265036,0.0006154324,0.0006080803,0.002013254,0.001751483,2089.998,2064.918,0,98.80537,,
	06/06/2022 03:28:25.595,1.94488e+06,2028.73,200.00,5.00,0.001060149,3.500009,0.00371053,0.0005973133,1.767147E-09,0.001953873,4.417698E-09,2028.407,0.0053,0,0.0002958492,,
	06/06/2022 04:01:52.383,1.94689e+06,2006.77,200.00,6.00,-0.001060111,2.499991,-0.00265027,0.0005973146,0.0005907998,0.001953878,0.001701191,2028.412,2006.281,0,98.90932,,