File: Cell-test-data/SiMP-LFP-PFF1/JB4_SiMP-LFP-PFF1_Channel_77_StatisticByStep.CSV
Date_Time                    ,Test Time (s),Step Time (s),Cycle Index,Step Index,Current (A),Voltage (V),Power (W),Charge Capacity (Ah),Discharge Capacity (Ah),Charge Energy (Wh),Discharge Energy (Wh),Charge Time (s),Discharge Time (s),V_Max_On_Cycle (V),Coulombic Efficiency (%),mAh/g
	08/05/2022 01:52:57.489,43200,43200,1.00,1.00,0,0.2645588,0,0,0,0,0,0,0,0,0,,
	08/10/2022 18:13:57.268,534060,7771.16,9.00,6.00,-0.001060134,2.499997,-0.00265033,0.002324987,0.002288134,0.007558526,0.006622608,7896.038,7770.167,0,98.41494,,
	08/12/2022 06:51:23.206,665906,6832.87,18.00,6.00,-0.001060024,2.499982,-0.00265004,0.002049144,0.002011566,0.006671967,0.005822323,6958.688,6831.954,0,98.16614,,
	08/13/2022 15:17:29.784,782672,6122.55,27.00,6.00,-0.001060081,2.499997,-0.0026502,0.001832521,0.001802652,0.005971767,0.005230704,6223.543,6121.798,0,98.37007,,
	08/14/2022 20:14:15.040,886878,5481.32,36.00,6.00,-0.001060019,2.499997,-0.00265004,0.001636037,0.001613808,0.005340658,0.00468392,5555.74,5480.668,0,98.64128,,
	08/15/2022 22:31:19.387,981502,5010.8,45.00,6.00,-0.001060132,2.499982,-0.00265031,0.001495002,0.001475345,0.004881796,0.004287954,5077.234,5010.142,0,98.68517,,
	08/16/2022 22:33:03.932,1.06801e+06,4600.18,54.00,6.00,-0.001059857,2.499993,-0.00264964,0.001371493,0.001354366,0.004480581,0.003938473,4658.027,4599.587,0,98.75118,,
	08/17/2022 20:41:30.039,1.14771e+06,4190.49,63.00,6.00,-0.001059959,2.499982,-0.00264988,0.001250485,0.001233637,0.004089791,0.003582664,4246.55,4189.97,0,98.65269,,
	08/18/2022 16:55:41.944,1.22056e+06,3895.28,72.00,6.00,-0.001060066,2.499997,-0.00265016,0.001160398,0.001146842,0.003797316,0.003330954,3940.604,3894.764,0,98.83174,,
	08/19/2022 11:46:00.825,1.28838e+06,3635.18,81.00,6.00,-0.001060053,2.499999,-0.00265013,0.001082022,0.001070236,0.003542809,0.003107601,3675,3634.755,0,98.91079,,
	08/20/2022 05:27:03.883,1.35205e+06,3419.82,90.00,6.00,-0.001059988,2.499995,-0.00264996,0.001017558,0.001006794,0.003332636,0.002923044,3455.449,3419.398,0,98.94222,,
	08/20/2022 22:05:47.278,1.41197e+06,3228.22,99.00,6.00,-0.001060025,2.499995,-0.00265006,0.0009602619,0.0009504472,0.003145949,0.00275897,3261.033,3227.828,0,98.97791,,
	08/21/2022 13:48:57.923,1.46856e+06,3055.92,108.00,6.00,-0.001060057,2.49999,-0.00265013,0.0009088119,0.0008997155,0.002978329,0.002611018,3086.292,3055.518,0,98.99908,,
	08/22/2022 04:43:59.681,1.52226e+06,2898.62,117.00,6.00,-0.001060131,2.499999,-0.00265033,0.0008614261,0.0008534151,0.002824133,0.002475128,2925.767,2898.281,0,99.07003,,
	08/22/2022 18:56:55.542,1.57344e+06,2773.95,126.00,6.00,-0.001060005,2.499993,-0.00265001,0.0008242604,0.0008166848,0.002702549,0.002368693,2799.126,2773.579,0,99.08092,,
	08/23/2022 08:31:58.723,1.62234e+06,2648.57,135.00,6.00,-0.001060031,2.499978,-0.00265005,0.0007867066,0.0007797477,0.002580224,0.002260462,2671.583,2648.229,0,99.11545,,
	08/23/2022 21:33:00.915,1.6692e+06,2542.45,144.00,6.00,-0.001059962,2.499995,-0.0026499,0.0007548648,0.0007485091,0.002476105,0.002169386,2563.395,2542.126,0,99.15805,,
	08/24/2022 10:00:04.379,1.71403e+06,2436.77,153.00,6.00,-0.001059936,2.499993,-0.00264983,0.0007230839,0.0007173516,0.002372713,0.002077859,2456.031,2436.471,0,99.20724,,
	08/24/2022 22:01:29.780,1.75731e+06,2351.58,162.00,6.00,-0.001059917,2.499993,-0.00264979,0.0006981653,0.0006922823,0.002291037,0.002004873,2371.155,2351.28,0,99.15736,,
	08/25/2022 09:34:05.548,1.79887e+06,2263.15,171.00,6.00,-0.001059997,2.499986,-0.00264998,0.0006717255,0.0006662807,0.002204864,0.001928751,2281.129,2262.858,0,99.18945,,
	08/25/2022 20:45:20.127,1.83914e+06,2191.94,180.00,6.00,-0.001060025,2.499999,-0.00265006,0.0006503113,0.0006453134,0.002134612,0.001867742,2208.344,2191.656,0,99.23146,,
	08/26/2022 07:31:37.701,1.87792e+06,2113.65,189.00,6.00,-0.001059924,2.49999,-0.0026498,0.0006269182,0.0006222376,0.002058395,0.001799947,2129.393,2113.401,0,99.2534,,
	08/26/2022 17:58:58.787,1.91556e+06,2058.77,198.00,6.00,-0.001060048,2.499991,-0.00265011,0.0006108344,0.0006061361,0.00200548,0.001753368,2074.313,2058.497,0,99.23084,,
	08/27/2022 04:06:26.865,1.95201e+06,1988.63,207.00,6.00,-0.001059892,2.499984,-0.00264971,0.0005894953,0.0005853946,0.00193599,0.001692188,2002.252,1988.37,0,99.30437,,
	08/27/2022 13:55:17.590,1.98734e+06,1935.93,216.00,6.00,-0.001060017,2.499972,-0.00265001,0.0005741413,0.0005699705,0.001885679,0.00164741,1949.736,1935.7,0,99.27357,,
	08/27/2022 23:28:40.722,2.02174e+06,1879.01,225.00,6.00,-0.001059889,2.499986,-0.00264971,0.0005571575,0.0005531542,0.00183022,0.001598012,1892.421,1878.775,0,99.28147,,
	08/28/2022 08:44:53.324,2.05512e+06,1826.21,234.00,6.00,-0.001059904,2.499999,-0.00264976,0.0005410765,0.000537605,0.001777732,0.001552418,1837.785,1826.001,0,99.35839,,
	08/28/2022 17:47:59.838,2.0877e+06,1786.14,243.00,6.00,-0.001060066,2.499995,-0.00265016,0.0005292655,0.000525861,0.001738913,0.00151834,1797.364,1785.915,0,99.35676,,
	08/29/2022 02:37:33.081,2.11948e+06,1737.17,252.00,6.00,-0.001059901,2.499997,-0.00264975,0.0005147167,0.0005113836,0.001691421,0.001475832,1748.292,1736.936,0,99.35246,,
	08/29/2022 11:13:11.416,2.15041e+06,1697.23,261.00,6.00,-0.001060034,2.499999,-0.00265008,0.0005029851,0.0004996866,0.001653007,0.001441771,1708.254,1697.021,0,99.3442,,
	08/29/2022 19:39:04.360,2.18077e+06,1662.86,270.00,6.00,-0.00106005,2.499999,-0.00265012,0.0004928991,0.0004895735,0.001619844,0.001412393,1673.901,1662.645,0,99.32529,,
	08/30/2022 03:52:00.355,2.21034e+06,1617.96,279.00,6.00,-0.001059945,2.499991,-0.00264985,0.0004794996,0.0004763062,0.001576089,0.001373376,1628.671,1617.737,0,99.33402,,
	08/31/2022 00:36:58.705,2.23905e+06,1572.92,288.00,6.00,-0.001059913,2.499999,-0.00264978,0.0004659121,0.0004630015,0.001531455,0.001334216,1582.514,1572.589,0,99.3753,,
	08/31/2022 08:24:04.883,2.26707e+06,1537.13,297.00,6.00,-0.00105985,2.499991,-0.00264962,0.0004553713,0.0004524577,0.001497032,0.001303482,1546.677,1536.79,0,99.36017,,
	08/31/2022 16:03:35.431,2.29464e+06,1519.07,306.00,6.00,-0.001060066,2.499993,-0.00265016,0.0004499507,0.0004472202,0.001478989,0.001288733,1528.05,1518.767,0,99.39316,,
	08/31/2022 23:35:36.686,2.32176e+06,1488.68,315.00,6.00,-0.001060031,2.499993,-0.00265007,0.0004409051,0.0004382757,0.001449312,0.00126258,1497.336,1488.367,0,99.40363,,
	09/01/2022 06:58:25.628,2.34833e+06,1457.14,324.00,6.00,-0.001059983,2.499999,-0.00264996,0.0004318141,0.0004289637,0.001419562,0.001235331,1466.375,1456.837,0,99.3399,,
	09/01/2022 14:12:33.769,2.37438e+06,1427.35,333.00,6.00,-0.001059922,2.499988,-0.00264979,0.0004229084,0.0004201467,0.001390402,0.00120957,1436.419,1427.042,0,99.34698,,
	09/01/2022 21:16:51.952,2.39984e+06,1398.34,342.00,6.00,-0.001059996,2.499997,-0.00264999,0.000413993,0.0004116535,0.001361239,0.001184735,1405.835,1398.053,0,99.43491,,
	09/02/2022 04:14:09.134,2.42488e+06,1372.47,351.00,6.00,-0.001059945,2.499976,-0.00264984,0.0004064035,0.0004040056,0.001336332,0.001162364,1380.389,1372.197,0,99.40997,,
	09/02/2022 11:02:35.726,2.44938e+06,1347.12,360.00,6.00,-0.001059975,2.499997,-0.00264993,0.0003989369,0.0003965606,0.001311883,0.001140729,1354.822,1346.839,0,99.40435,,
	09/02/2022 17:46:00.561,2.47359e+06,1330.4,369.00,6.00,-0.001060053,2.499995,-0.00265013,0.0003941209,0.0003916765,0.001295956,0.001126663,1338.465,1330.131,0,99.37978,,
	09/03/2022 00:21:59.126,2.49735e+06,1305.5,378.00,6.00,-0.001060031,2.499999,-0.00265008,0.0003866183,0.0003843389,0.001271395,0.001105245,1312.962,1305.244,0,99.41042,,
	09/03/2022 06:50:39.906,2.52067e+06,1282.02,387.00,6.00,-0.001060024,2.499982,-0.00265004,0.0003796793,0.0003774162,0.001248637,0.001085079,1289.386,1281.766,0,99.40395,,
	09/03/2022 13:13:03.107,2.54361e+06,1259.47,396.00,6.00,-0.001059938,2.499997,-0.00264984,0.0003730161,0.0003707506,0.001226792,0.001065622,1266.693,1259.198,0,99.39265,,
	09/03/2022 19:27:45.525,2.56609e+06,1234.57,405.00,6.00,-0.001059908,2.499982,-0.00264975,0.0003655429,0.0003634049,0.00120234,0.001044136,1241.606,1234.324,0,99.41512,,
	09/04/2022 01:36:15.276,2.5882e+06,1219.05,414.00,6.00,-0.001060048,2.499995,-0.00265011,0.000360974,0.0003588948,0.001187276,0.001031147,1225.879,1218.832,0,99.42399,,
	09/04/2022 07:40:57.842,2.61009e+06,1205.29,423.00,6.00,-0.001060043,2.499988,-0.00265009,0.0003569846,0.0003548256,0.001174092,0.001019457,1212.346,1205.042,0,99.39523,,
	09/04/2022 13:38:34.618,2.63154e+06,1178.4,432.00,6.00,-0.001059926,2.499991,-0.00264981,0.0003489254,0.0003468903,0.001147765,0.0009961185,1185.167,1178.21,0,99.41676,,
	09/04/2022 19:29:30.483,2.6526e+06,1157.45,441.00,6.00,-0.001059864,2.499999,-0.00264966,0.0003427019,0.0003407071,0.001127359,0.0009781098,1163.952,1157.271,0,99.41794,,
	09/05/2022 01:14:56.261,2.67332e+06,1142.81,450.00,6.00,-0.001059999,2.499991,-0.00264999,0.0003383865,0.0003364406,0.001113144,0.0009658089,1149.115,1142.626,0,99.42493,,
	09/05/2022 06:57:45.520,2.69389e+06,1137.45,459.00,6.00,-0.001060085,2.499997,-0.00265021,0.0003367916,0.00033488,0.001107765,0.0009615033,1143.754,1137.265,0,99.4324,,
	09/05/2022 12:35:10.538,2.71414e+06,1110.58,468.00,6.00,-0.001059912,2.499993,-0.00264977,0.0003286997,0.0003269291,0.001081312,0.0009381525,1116.282,1110.41,0,99.46135,,
	09/05/2022 18:06:43.022,2.73403e+06,1099.63,477.00,6.00,-0.001060087,2.499984,-0.0026502,0.0003250884,0.0003237433,0.001069415,0.0009290075,1103.974,1099.462,0,99.58621,,
	09/05/2022 23:55:29.582,2.75496e+06,1189.52,486.00,6.00,-0.001060029,2.499995,-0.00265007,0.0003523787,0.000350204,0.001157909,0.001008319,1196.731,1189.328,0,99.38285,,
	09/06/2022 05:52:56.221,2.7764e+06,1185.37,495.00,6.00,-0.001060011,2.499999,-0.00265003,0.0003512176,0.0003489913,0.001153506,0.001005071,1192.83,1185.189,0,99.36611,,
	09/06/2022 11:06:17.767,2.79521e+06,1134.58,503.00,6.00,-0.001060148,2.499984,-0.00265035,0.0003371158,0.0003340536,0.001107486,0.0009606249,1144.985,1134.409,0,99.09167,,