File: Cell-test-data/SiMP-LFP-PFF1/JB4_SiMP-LFP-PFF1_Channel_77_StatisticByCycle.CSV
Date_Time                    ,Test Time (s),Step Time (s),Cycle Index,Step Index,Current (A),Voltage (V),Power (W),Charge Capacity (Ah),Discharge Capacity (Ah),Charge Energy (Wh),Discharge Energy (Wh),Charge Time (s),Discharge Time (s),V_Max_On_Cycle (V),Coulombic Efficiency (%),mAh/g
	08/06/2022 16:36:24.194,182606.705,64422.3,1,3,-0.000159008,2.499993,-0.000397519,0.003311374,0.002844972,0.01100335,0.008440274,74974.68,64414.09,0,85.91515,,
	08/10/2022 22:32:13.207,549556,7682.64,10,6,-0.001060127,2.499995,-0.00265031,0.002300218,0.002262071,0.007477259,0.00654849,7812.245,7681.673,0,98.34159,,
	08/12/2022 10:37:42.340,679485,6730.53,19,6,-0.001060017,2.49999,-0.00265003,0.002016233,0.001981457,0.006567264,0.005734693,6847.683,6729.722,0,98.27518,,
	08/13/2022 18:40:10.626,794833,6028.03,28,6,-0.001059936,2.499988,-0.00264983,0.001805695,0.001774717,0.005885818,0.005147658,6132.018,6027.295,0,98.28439,,
	08/14/2022 23:17:06.606,897849,5445.23,37,6,-0.001059999,2.49998,-0.00264998,0.001627052,0.001603208,0.005309472,0.004655973,5525.55,5444.56,0,98.5345,,
	08/16/2022 01:18:28.779,991531,4979.54,46,6,-0.001060097,2.499986,-0.00265023,0.001486638,0.00146612,0.004853114,0.004263176,5049.149,4978.876,0,98.61984,,
	08/17/2022 01:06:26.737,1.07721e+06,4571.05,55,6,-0.001059847,2.499997,-0.00264961,0.001363456,0.00134576,0.004453459,0.003914742,4631.045,4570.523,0,98.70214,,
	08/17/2022 23:00:41.225,1156063.736,4150.81,64,6,-0.00105998,2.499982,-0.00264993,0.001236748,0.00122199,0.004045725,0.003548604,4199.783,4150.257,0,98.80672,,
	08/18/2022 19:05:26.069,1.22835e+06,3869.382,73,6,-0.001060047,2.499991,-0.00265011,0.001152544,0.001139202,0.003771438,0.003309002,3914.192,3868.901,0,98.84236,,
	08/19/2022 13:47:16.691,1.29566e+06,3618.32,82,6,-0.00106005,2.499999,-0.00265012,0.00107685,0.001065324,0.003525514,0.0030942,3657.029,3617.844,0,98.92966,,
	08/20/2022 07:20:55.374,1.35888e+06,3397.4,91,6,-0.001060003,2.499984,-0.00264999,0.001011125,0.001000221,0.003311664,0.002904026,3433.609,3396.967,0,98.92157,,
	08/20/2022 23:53:17.257,1.41842e+06,3208.36,100,6,-0.001060025,2.499986,-0.00265005,0.0009544111,0.000944562,0.003126819,0.002741872,3241.134,3207.94,0,98.96806,,
	08/21/2022 15:30:46.729,1474669.24,3039.88,109,6,-0.001060015,2.499991,-0.00265003,0.0009035533,0.0008949816,0.00296113,0.002597213,3068.455,3039.481,0,99.05134,,
	08/22/2022 06:20:29.467,1.52805e+06,2880.825,118,6,-0.001060155,2.499999,-0.00265039,0.0008563478,0.0008481471,0.002807694,0.002459642,2908.542,2880.463,0,99.04237,,
	08/22/2022 20:29:21.061,1.57898e+06,2760.35,127,6,-0.001060029,2.499995,-0.00265007,0.0008200263,0.0008126892,0.002688742,0.002356979,2784.756,2760.015,0,99.10526,,
	08/23/2022 10:00:14.748,1.62764e+06,2637.35,136,6,-0.00106007,2.499991,-0.00265017,0.0007828067,0.0007764634,0.00256747,0.002250916,2658.287,2636.998,0,99.18967,,
	08/23/2022 22:57:40.221,1.67428e+06,2528.38,145,6,-0.001059889,2.499993,-0.00264972,0.0007509809,0.0007443397,0.002463479,0.002157065,2550.561,2528.079,0,99.11568,,
	08/24/2022 11:21:19.440,1.7189e+06,2428.04,154,6,-0.001060089,2.499999,-0.00265022,0.0007204397,0.0007148584,0.002364042,0.002070663,2446.662,2427.746,0,99.2253,,
	08/24/2022 23:19:47.911,1762010.422,2338.62,163,6,-0.001059957,2.49999,-0.00264988,0.0006945592,0.0006884645,0.002279387,0.00199365,2359.152,2338.33,0,99.1225,,
	08/25/2022 10:49:34.811,1.8034e+06,2256.25,172,6,-0.001060024,2.49999,-0.00265005,0.0006692454,0.0006642695,0.002196735,0.001922938,2272.66,2255.955,0,99.25649,,
	08/25/2022 21:58:21.443,1.84352e+06,2182.23,181,6,-0.001059962,2.499999,-0.0026499,0.0006474924,0.0006424348,0.002125486,0.001859266,2198.743,2181.966,0,99.21889,,
	08/26/2022 08:42:06.193,1.88215e+06,2106.09,190,6,-0.001059949,2.49999,-0.00264986,0.0006248477,0.0006200246,0.00205161,0.001793521,2122.087,2105.831,0,99.22811,,
	08/26/2022 19:07:33.157,1.91968e+06,2049.11,199,6,-0.00106007,2.49999,-0.00265016,0.0006080542,0.0006033194,0.001996462,0.001745012,2064.925,2048.855,0,99.22132,,
	08/27/2022 05:12:43.665,1.95599e+06,1980.85,208,6,-0.001059896,2.499997,-0.00264974,0.0005875603,0.0005831081,0.001929687,0.00168546,1995.639,1980.59,0,99.24226,,
	08/27/2022 14:59:49.586,1.99121e+06,1928.97,217,6,-0.001060041,2.499999,-0.0026501,0.000572073,0.0005679112,0.001878923,0.001641283,1942.703,1928.726,0,99.27251,,
	08/28/2022 00:31:19.618,2.0255e+06,1872.93,226,6,-0.001059894,2.499988,-0.00264972,0.0005551747,0.00055135,0.001823757,0.001592707,1885.671,1872.694,0,99.31109,,
	08/28/2022 09:45:48.209,2.05877e+06,1821.04,235,6,-0.001059946,2.499986,-0.00264985,0.0005398339,0.0005360817,0.001773645,0.001548001,1833.561,1820.802,0,99.30495,,
	08/28/2022 18:47:33.277,2.09128e+06,1780.5,244,6,-0.001059957,2.499991,-0.00264988,0.000527899,0.0005242045,0.001734453,0.001513526,1792.657,1780.282,0,99.30014,,
	08/29/2022 03:35:27.841,2.12295e+06,1731.6,253,6,-0.001059927,2.499984,-0.0026498,0.0005131421,0.0005097472,0.001686293,0.001471005,1742.885,1731.386,0,99.3384,,
	08/29/2022 12:09:50.264,2.15381e+06,1693.92,262,6,-0.001060025,2.499995,-0.00265006,0.0005019854,0.0004987209,0.001649707,0.001438986,1704.662,1693.71,0,99.34969,,
	08/29/2022 20:34:30.621,2184093.132,1657.73,271,6,-0.001059983,2.499993,-0.00264995,0.0004912639,0.0004880402,0.001614507,0.001407856,1668.249,1657.522,0,99.3438,,
	08/30/2022 17:31:53.929,2.21354e+06,1615.66,280,6,-0.001060043,2.499986,-0.00265009,0.0004661587,0.0004756521,0.001530471,0.001369213,336.7305,1615.318,0,102.0365,,
	08/31/2022 01:29:25.105,2.24219e+06,1568.02,289,6,-0.001059912,2.499995,-0.00264977,0.0004645847,0.0004615581,0.001527139,0.001330013,1578.01,1567.698,0,99.34853,,
	08/31/2022 09:15:23.404,2.27015e+06,1534.588,298,6,-0.001059884,2.499993,-0.0026497,0.000454448,0.0004517135,0.001493988,0.001301339,1543.547,1534.28,0,99.39828,,
	08/31/2022 16:54:17.307,2.29768e+06,1516.07,307,6,-0.001060045,2.499993,-0.00265011,0.0004491901,0.0004463362,0.00147647,0.001286144,1525.447,1515.767,0,99.36465,,
	09/01/2022 00:25:16.585,2324743.886,1485.06,316,6,-0.001060078,2.499997,-0.00265019,0.0004400596,0.0004372022,0.001446546,0.001259486,1494.459,1484.73,0,99.35069,,
	09/01/2022 07:47:01.777,2.35125e+06,1453.61,325,6,-0.001060033,2.499991,-0.00265007,0.0004305743,0.0004279267,0.001415523,0.001232282,1462.168,1453.29,0,99.38509,,
	09/01/2022 15:00:10.337,2.37724e+06,1423.93,334,6,-0.001059857,2.499999,-0.00264964,0.0004216752,0.0004191367,0.001386381,0.001206602,1432.276,1423.623,0,99.39798,,
	09/01/2022 22:03:34.629,2.40264e+06,1397.41,343,6,-0.001060024,2.499999,-0.00265006,0.0004137136,0.0004113871,0.001360289,0.001184001,1404.931,1397.121,0,99.43765,,
	09/02/2022 04:59:54.933,2.42762e+06,1368.4,352,6,-0.001059878,2.499999,-0.00264969,0.0004054155,0.0004028048,0.001333106,0.001158875,1377.049,1368.139,0,99.35604,,
	09/02/2022 11:47:34.886,2.45208e+06,1345.77,361,6,-0.001060025,2.499986,-0.00265005,0.0003984393,0.0003961895,0.001310234,0.00113969,1353.05,1345.507,0,99.43534,,
	09/02/2022 18:30:23.792,2.47625e+06,1327.51,370,6,-0.001059982,2.499993,-0.00264995,0.0003932137,0.0003908092,0.001292997,0.001124137,1335.395,1327.25,0,99.3885,,
	09/03/2022 01:05:32.383,2.49996e+06,1302.31,379,6,-0.001060043,2.49999,-0.0026501,0.0003859351,0.0003833922,0.001269147,0.001102499,1310.614,1302.06,0,99.34111,,
	09/03/2022 07:33:28.038,2.52324e+06,1280.46,388,6,-0.001060092,2.499999,-0.00265023,0.0003790839,0.0003769745,0.001246678,0.0010838,1287.346,1280.199,0,99.44357,,
	09/03/2022 13:55:03.869,2.54613e+06,1256.69,397,6,-0.001059954,2.499972,-0.00264986,0.000372155,0.0003699303,0.001223971,0.001063226,1263.759,1256.419,0,99.40221,,
	09/03/2022 20:08:57.595,2.56856e+06,1232.39,406,6,-0.00105992,2.499972,-0.00264977,0.0003648766,0.0003627674,0.001200175,0.001042278,1239.357,1232.141,0,99.42194,,
	09/04/2022 02:16:57.924,2.59065e+06,1218.02,415,6,-0.001060078,2.499999,-0.00265019,0.0003605183,0.0003585837,0.001185775,0.001030263,1224.308,1217.774,0,99.46338,,
	09/04/2022 08:21:07.880,2.6125e+06,1200.98,424,6,-0.001060011,2.499999,-0.00265003,0.0003559454,0.0003535655,0.001170701,0.00101574,1208.779,1200.783,0,99.3314,,
	09/04/2022 14:17:53.182,2.6339e+06,1175.474,433,6,-0.001059912,2.499995,-0.00264977,0.000348246,0.0003460322,0.001145544,0.0009936249,1182.852,1175.29,0,99.36427,,
	09/04/2022 20:08:07.239,2.65491e+06,1154.79,442,6,-0.00105985,2.499995,-0.00264962,0.0003420383,0.0003399259,0.001125186,0.0009758491,1161.74,1154.597,0,99.38241,,
	09/05/2022 01:53:06.358,2.67561e+06,1141.894,451,6,-0.001060017,2.499995,-0.00265004,0.0003380504,0.0003361782,0.001112043,0.0009650573,1147.974,1141.717,0,99.44619,,
	09/05/2022 07:35:45.117,2.69617e+06,1136.39,460,6,-0.001060036,2.49999,-0.00265008,0.0003365631,0.0003345638,0.001106994,0.0009606077,1142.976,1136.208,0,99.40598,,
	09/05/2022 13:12:14.342,2.71636e+06,1108.63,469,6,-0.00105987,2.499986,-0.00264966,0.0003282504,0.000326347,0.001079826,0.0009364479,1114.95,1108.459,0,99.42012,,
	09/05/2022 18:43:42.138,2.73625e+06,1108.58,478,6,-0.001059873,2.49999,-0.00264967,0.0003269145,0.0003263718,0.001075389,0.000936845,1110.306,1108.407,0,99.83401,,
	09/06/2022 00:35:17.047,2.75734e+06,1189.74,487,6,-0.001060067,2.499995,-0.00265016,0.0003525973,0.0003502748,0.001158497,0.001008576,1197.479,1189.557,0,99.34131,,
	09/06/2022 06:32:33.343,2.77878e+06,1184.59,496,6,-0.001060078,2.499993,-0.00265019,0.0003510639,0.0003487607,0.001152949,0.001004453,1192.285,1184.402,0,99.34394,,
	09/06/2022 11:06:17.767,2.79521e+06,1134.58,503,6,-0.001060148,2.499984,-0.00265035,0.0003371158,0.0003340536,0.001107486,0.0009606249,1144.985,1134.409,0,99.09167,,