File: Cell-test-data/SiMP-LFP-PFOS3/JB9_SiMPs-LFP-PDF3_GF260_Channel_64_StatisticByCycle.CSV
Date_Time                    ,Test Time (s),Step Time (s),Cycle Index,Step Index,Current (A),Voltage (V),Power (W),Charge Capacity (Ah),Discharge Capacity (Ah),Charge Energy (Wh),Discharge Energy (Wh),Charge Time (s),Discharge Time (s),V_Max_On_Cycle (V),Coulombic Efficiency (%),mAh/g
	05/16/2022 17:14:14.122,179940,62189.3,1,3,-0.0001590168,2.499997,-0.000397542,0.003292293,0.002746372,0.01084747,0.008155276,74539,62178.73,0,83.41821,,
	05/19/2022 21:50:04.927,455691,7688.19,5,6,-0.001060134,2.499991,-0.00265033,0.002310268,0.00226356,0.007505594,0.00655751,7846.125,7686.818,0,97.97826,,
	05/20/2022 14:33:54.937,515921,7321.66,9,6,-0.001060102,2.499982,-0.00265024,0.002196522,0.002155628,0.007130981,0.006239075,7459.821,7320.369,0,98.13823,,
	05/21/2022 06:32:20.102,573426,6988.17,13,6,-0.001060144,2.49998,-0.00265034,0.002094111,0.002057366,0.006798369,0.005954064,7112.009,6986.926,0,98.24533,,
	05/21/2022 21:48:15.912,628382,6696.79,17,6,-0.001059856,2.499995,-0.00264963,0.002006864,0.001971311,0.006515447,0.005707256,6815.956,6695.492,0,98.22844,,
	05/22/2022 12:26:34.316,681080,6436.88,21,6,-0.001059877,2.499999,-0.00264969,0.001926147,0.001894806,0.006255112,0.00548806,6542.128,6435.867,0,98.37285,,
	05/23/2022 02:32:50.347,731856,6207.86,25,6,-0.001059975,2.499997,-0.00264993,0.001856466,0.001827442,0.006030119,0.005295388,6305.284,6206.874,0,98.43658,,
	05/23/2022 16:09:22.083,780848.134,5998.417,29,6,-0.001059855,2.499974,-0.00264961,0.001793753,0.001765683,0.005827546,0.005118744,6092.232,5997.355,0,98.43513,,
	05/24/2022 05:19:45.359,828271,5816.24,33,6,-0.001059847,2.499995,-0.00264961,0.001737781,0.001712225,0.005646802,0.004965067,5902.05,5815.174,0,98.52937,,
	05/24/2022 18:06:40.452,874287,5646.69,37,6,-0.001059911,2.499997,-0.00264977,0.001687529,0.001662145,0.005484164,0.004821553,5731.418,5645.605,0,98.49578,,
	05/25/2022 06:32:20.002,919026,5514.07,41,6,-0.001060031,2.499995,-0.00265007,0.00164611,0.001623329,0.00534849,0.004713957,5590.262,5513.018,0,98.61604,,
	05/25/2022 18:37:09.828,962516,5338.72,45,6,-0.001059867,2.499991,-0.00264966,0.001592116,0.001571515,0.005175504,0.004561187,5407.347,5337.72,0,98.70607,,
	05/26/2022 06:21:40.475,1.00479e+06,5196.2,49,6,-0.001059942,2.499982,-0.00264984,0.001550025,0.00152967,0.005039516,0.004440652,5264.672,5195.313,0,98.68681,,
	05/26/2022 17:48:10.363,1.04598e+06,5064.61,53,6,-0.001059983,2.499997,-0.00264995,0.001510434,0.001490966,0.004911561,0.004328995,5130.271,5063.773,0,98.71112,,
	05/27/2022 04:56:47.967,1.08609e+06,4932.331,57,6,-0.001059958,2.499999,-0.00264989,0.001471463,0.001452047,0.004785316,0.004217001,4997.97,4931.544,0,98.68049,,
	05/27/2022 15:48:32.168,1.1252e+06,4811.34,61,6,-0.001059847,2.499997,-0.00264961,0.001434685,0.001416288,0.00466633,0.004113619,4872.676,4810.599,0,98.71773,,
	05/28/2022 02:24:10.971,1.16334e+06,4690.502,65,6,-0.001059981,2.499995,-0.00264995,0.001399401,0.001380811,0.004552205,0.004010948,4753.126,4689.638,0,98.67155,,
	05/28/2022 12:44:18.755,1.20054e+06,4580.72,69,6,-0.001059964,2.49999,-0.0026499,0.001366282,0.001348448,0.0044448,0.003917421,4640.427,4579.902,0,98.6947,,
	05/28/2022 22:50:02.171,1.23689e+06,4473,73,6,-0.001059953,2.499986,-0.00264987,0.001333948,0.00131676,0.004340018,0.003825373,4530.832,4472.135,0,98.7115,,
	05/29/2022 08:41:26.831,1.27237e+06,4371.6,77,6,-0.001059955,2.499988,-0.00264987,0.001302678,0.001286932,0.004238703,0.003738736,4424.528,4370.836,0,98.79126,,
	05/29/2022 18:20:12.997,1.3071e+06,4274.839,81,6,-0.001060155,2.499991,-0.00265038,0.001274619,0.001258595,0.004147653,0.003656551,4329.108,4274.034,0,98.74286,,
	05/30/2022 03:46:29.887,1.34108e+06,4185,85,6,-0.001060009,2.499997,-0.00265002,0.001247824,0.00123198,0.004060394,0.00357937,4238.194,4184.31,0,98.73029,,
	05/30/2022 13:00:36.567,1.37432e+06,4097.15,89,6,-0.001060183,2.499967,-0.00265042,0.001220905,0.001206038,0.003973093,0.003503961,4146.679,4096.384,0,98.78231,,
	05/30/2022 22:02:36.476,1.40684e+06,4008.72,93,6,-0.001059835,2.499997,-0.00264958,0.001194268,0.001180129,0.003886656,0.003428374,4056.052,4007.957,0,98.81616,,
	05/31/2022 06:53:56.971,1.43872e+06,3933.11,97,6,-0.001059928,2.499986,-0.00264981,0.001170963,0.001157853,0.003810758,0.003363585,3977.056,3932.498,0,98.88035,,
	05/31/2022 15:34:36.994,1.46996e+06,3850.79,101,6,-0.001060155,2.499993,-0.00265038,0.001147194,0.001133676,0.003733763,0.003292632,3896.18,3850.173,0,98.82165,,
	06/01/2022 00:04:45.506,1.50057e+06,3774.06,105,6,-0.001059837,2.499997,-0.00264959,0.001124416,0.001110905,0.003659369,0.003226373,3818.872,3773.341,0,98.79839,,
	06/01/2022 08:24:53.425,1.53058e+06,3702.149,109,6,-0.001059879,2.499986,-0.00264968,0.001102719,0.00108978,0.003588807,0.003164833,3745.24,3701.556,0,98.82661,,
	06/01/2022 16:35:10.339,1.56e+06,3626.18,113,6,-0.001060141,2.499991,-0.00265034,0.001080622,0.001067642,0.003517145,0.003099822,3670.15,3625.559,0,98.79886,,
	06/02/2022 00:35:39.730,1.58883e+06,3556.188,117,6,-0.00106016,2.49999,-0.00265039,0.001059875,0.001046954,0.00344952,0.003039477,3599.612,3555.609,0,98.7809,,
	06/02/2022 08:27:14.208,1.61712e+06,3490.94,121,6,-0.001059941,2.499982,-0.00264983,0.00103989,0.001027662,0.003384356,0.002982888,3531.878,3490.348,0,98.82416,,
	06/02/2022 16:09:35.674,1.64486e+06,3420.34,125,6,-0.001059886,2.499986,-0.0026497,0.001019464,0.001007024,0.003317845,0.002922388,3462.303,3419.806,0,98.77973,,
	06/02/2022 23:42:44.890,1.67205e+06,3353.85,129,6,-0.001059932,2.499995,-0.00264982,0.0009990382,0.0009873098,0.003251288,0.002864832,3393.108,3353.336,0,98.82603,,
	06/03/2022 07:07:11.503,1.69872e+06,3287.99,133,6,-0.001059958,2.499988,-0.00264988,0.0009799547,0.0009679595,0.003189225,0.002808095,3328.432,3287.469,0,98.77595,,
	06/03/2022 14:22:37.760,1.72484e+06,3218.65,137,6,-0.001059883,2.499995,-0.0026497,0.0009591127,0.0009474659,0.003121334,0.002748113,3257.564,3218.107,0,98.78568,,
	06/03/2022 21:28:57.123,1.75042e+06,3155.08,141,6,-0.001060002,2.499997,-0.00265,0.0009397737,0.0009288273,0.003058454,0.002693601,3191.976,3154.526,0,98.83521,,
	06/04/2022 04:26:57.633,1.7755e+06,3090.83,145,6,-0.001060039,2.49998,-0.00265008,0.0009216501,0.000909925,0.002999366,0.002638249,3130.398,3090.304,0,98.72782,,
	06/04/2022 11:16:11.270,1.80006e+06,3026.3,149,6,-0.001059972,2.499999,-0.00264993,0.000901613,0.0008908616,0.002934183,0.002582283,3062.365,3025.647,0,98.80753,,
	06/04/2022 17:56:23.094,1.82407e+06,2958.38,153,6,-0.001059856,2.499997,-0.00264964,0.0008810894,0.0008708941,0.002867521,0.002523688,2992.437,2957.931,0,98.84287,,
	06/05/2022 00:27:54.992,1.84756e+06,2893.01,157,6,-0.001060155,2.499991,-0.00265038,0.0008625526,0.0008517021,0.002807131,0.00246762,2929.553,2892.472,0,98.74204,,
	06/05/2022 06:50:40.100,1.87053e+06,2828.43,161,6,-0.001059886,2.499995,-0.00264971,0.0008434107,0.000832613,0.002744784,0.002411909,2864.51,2828.027,0,98.71976,,
	06/05/2022 13:04:55.694,1.89298e+06,2763.43,165,6,-0.001059841,2.499997,-0.0026496,0.0008239503,0.0008134908,0.002681392,0.002356027,2798.51,2762.968,0,98.73056,,
	06/05/2022 19:10:17.974,1.9149e+06,2700.621,169,6,-0.001059837,2.499999,-0.00264959,0.0008054218,0.0007949759,0.002620764,0.00230234,2735.453,2700.266,0,98.70305,,
	06/06/2022 01:07:26.118,1.93633e+06,2635.97,173,6,-0.001059883,2.499999,-0.00264971,0.0007865068,0.0007759539,0.002559385,0.002246743,2671.295,2635.534,0,98.65826,,
	06/06/2022 06:56:12.092,1.95726e+06,2575.62,177,6,-0.001059984,2.499999,-0.00264996,0.0007691104,0.0007582295,0.002502301,0.002195403,2612.313,2575.115,0,98.58526,,
	06/06/2022 12:36:04.853,1.97765e+06,2503.08,181,6,-0.001059856,2.499999,-0.00264964,0.0007472619,0.0007368094,0.002431465,0.002132329,2538.028,2502.674,0,98.60122,,
	06/06/2022 18:06:09.843,1.99746e+06,2435.03,185,6,-0.001060138,2.499986,-0.00265033,0.0007269104,0.0007169631,0.002365379,0.002074526,2468.785,2434.684,0,98.63156,,
	06/06/2022 23:27:47.284,2.01675e+06,2371.14,189,6,-0.001059891,2.499997,-0.00264972,0.0007074548,0.0006979625,0.002302194,0.002018902,2402.801,2370.708,0,98.65824,,
	06/07/2022 04:40:57.615,2.03554e+06,2311.72,193,6,-0.001059972,2.499986,-0.00264992,0.0006895321,0.0006805341,0.002243455,0.00196841,2341.977,2311.337,0,98.69506,,
	06/07/2022 09:47:00.605,2.05391e+06,2255.486,197,6,-0.001059981,2.499982,-0.00264993,0.00067372,0.0006639777,0.002191979,0.001920368,2288.314,2255.122,0,98.55396,,
	06/07/2022 13:30:10.557,2.0673e+06,2199.41,200,6,-0.001060153,2.499993,-0.00265038,0.0006568229,0.0006475522,0.002137047,0.001871974,2230.762,2199.063,0,98.58855,,