File: Cell-test-data/SiMP-LFP-PFOS3/JB9_SiMPs-LFP-PDF3_GF260_Channel_64_StatisticByStep.CSV
Date_Time                    ,Test Time (s),Step Time (s),Cycle Index,Step Index,Current (A),Voltage (V),Power (W),Charge Capacity (Ah),Discharge Capacity (Ah),Charge Energy (Wh),Discharge Energy (Wh),Charge Time (s),Discharge Time (s),V_Max_On_Cycle (V),Coulombic Efficiency (%),mAh/g
	05/15/2022 03:15:13.950,43200,43200,1.00,1.00,0,0.2892427,0,0,0,0,0,0,0,0,0,,
	05/19/2022 15:20:01.035,432287,8336.84,4.00,5.00,0.001060002,3.500001,0.00371001,0.002454284,2.914844E-10,0.007994233,7.287739E-10,8335.334,0.0058,0,1.187656E-05,,
	05/20/2022 06:18:02.444,486168,7504.5,7.00,6.00,-0.001059895,2.499999,-0.00264974,0.002251594,0.002209117,0.007310962,0.0063961,7647.158,7503.116,0,98.11344,,
	05/20/2022 20:39:45.771,537872,7306.99,11.00,5.00,0.001059959,3.500003,0.00370986,0.002151087,2.267527E-09,0.006980873,5.669154E-09,7305.572,0.0077,0,0.0001054131,,
	05/21/2022 10:24:55.167,587381,6915.16,14.00,6.00,-0.00105987,2.499984,-0.00264966,0.002072452,0.002035557,0.006728142,0.00589168,7038.795,6913.866,0,98.21973,,
	05/21/2022 23:40:38.311,635124,6742.37,18.00,5.00,0.001059954,3.500005,0.00370984,0.001984802,2.355257E-09,0.006444728,5.887885E-09,6741.125,0.007999999,0,0.0001186646,,
	05/22/2022 12:26:34.316,681080,6436.88,21.00,6.00,-0.001059877,2.499999,-0.00264969,0.001926147,0.001894806,0.006255112,0.00548806,6542.128,6435.867,0,98.37285,,
	05/23/2022 00:49:22.463,725649,6306.33,25.00,5.00,0.001059971,3.500005,0.0037099,0.001856465,1.972521E-09,0.006030115,4.931095E-09,6305.28,0.006,0,0.0001062515,,
	05/23/2022 12:47:50.276,768756,6051.45,28.00,6.00,-0.001060164,2.499988,-0.0026504,0.001808384,0.001781673,0.005874906,0.005164396,6141.76,6050.309,0,98.52293,,
	05/24/2022 00:26:42.335,810688,5946.73,32.00,5.00,0.001059994,3.500007,0.00370999,0.001750618,2.119868E-09,0.005688267,5.299408E-09,5945.659,0.0072,0,0.0001210926,,
	05/24/2022 11:46:03.672,851450,5731.35,35.00,6.00,-0.001059851,2.49999,-0.00264962,0.001712261,0.001687102,0.005564144,0.004893274,5815.505,5730.354,0,98.53067,,
	05/24/2022 22:48:49.168,891215,5640.28,39.00,5.00,0.001059991,3.500012,0.00370998,0.001660394,1.884434E-09,0.00539661,4.711319E-09,5639.124,0.0056,0,0.0001134932,,
	05/25/2022 09:36:11.481,930058,5474.05,42.00,6.00,-0.001059835,2.499997,-0.00264958,0.001636049,0.001611507,0.005315178,0.004679372,5556.269,5472.956,0,98.49995,,
	05/25/2022 20:06:44.729,967891,5374.87,46.00,5.00,0.001060008,3.500001,0.00371003,0.001582282,1.73696E-09,0.005143749,4.342147E-09,5373.855,0.0059,0,0.0001097757,,
	05/26/2022 06:21:40.475,1.00479e+06,5196.2,49.00,6.00,-0.001059942,2.499982,-0.00264984,0.001550025,0.00152967,0.005039516,0.004440652,5264.672,5195.313,0,98.68681,,
	05/26/2022 16:23:45.733,1.04091e+06,5131.1,53.00,5.00,0.001059876,3.500014,0.00370958,0.001510432,1.972769E-09,0.004911554,4.931592E-09,5130.266,0.0058,0,0.0001306096,,
	05/27/2022 02:11:16.839,1.07616e+06,4963.7,56.00,6.00,-0.001059997,2.499997,-0.00264999,0.001481171,0.001461282,0.004816748,0.004243494,5030.843,4962.836,0,98.65722,,
	05/27/2022 11:46:26.810,1.11067e+06,4902.1,60.00,5.00,0.001059855,3.500001,0.00370949,0.001442983,1.854904E-09,0.004693285,4.63748E-09,4901.282,0.0063,0,0.0001285466,,
	05/27/2022 21:08:22.832,1.14439e+06,4750.3,63.00,6.00,-0.001059927,2.499999,-0.00264982,0.001417055,0.001398451,0.004609345,0.004061797,4813.138,4749.588,0,98.68711,,
	05/28/2022 06:18:51.052,1.17742e+06,4695.24,67.00,5.00,0.001059911,3.500005,0.00370969,0.001382146,1.972829E-09,0.004496341,4.931786E-09,4694.327,0.0058,0,0.0001427366,,
	05/28/2022 15:17:04.585,1.20971e+06,4554.75,70.00,6.00,-0.001059956,2.499999,-0.00264989,0.001357412,0.001340795,0.004415961,0.003895173,4610.337,4553.918,0,98.77583,,
	05/29/2022 00:05:05.320,1.24139e+06,4503.12,74.00,5.00,0.001059899,3.500003,0.00370965,0.001325569,1.472294E-09,0.004312921,3.680756E-09,4502.244,0.005,0,0.0001110688,,
	05/29/2022 08:41:26.831,1.27237e+06,4371.6,77.00,6.00,-0.001059955,2.499988,-0.00264987,0.001302678,0.001286932,0.004238703,0.003738736,4424.528,4370.836,0,98.79126,,
	05/29/2022 17:08:58.134,1.30282e+06,4329.74,81.00,5.00,0.00105998,3.500001,0.00370993,0.001274617,1.796109E-09,0.004147646,4.49013E-09,4329.102,0.0061,0,0.0001409137,,
	05/30/2022 01:26:05.870,1.33265e+06,4211.77,84.00,6.00,-0.001059944,2.499988,-0.00264985,0.001255149,0.001239788,0.004084229,0.003602145,4263.012,4210.894,0,98.77621,,
	05/30/2022 09:34:33.735,1.36196e+06,4170.62,88.00,5.00,0.001059925,3.50001,0.00370975,0.001227671,1.678409E-09,0.003995047,4.195851E-09,4169.797,0.0057,0,0.0001367149,,
	05/30/2022 17:33:02.371,1.39067e+06,4051.09,91.00,6.00,-0.001059814,2.499999,-0.00264953,0.001207009,0.001192678,0.003928112,0.003464715,4099.291,4050.266,0,98.81264,,
	05/31/2022 01:23:27.396,1.41889e+06,4020.64,95.00,5.00,0.001059899,3.500003,0.00370965,0.001183586,1.884314E-09,0.003851779,4.710867E-09,4019.968,0.0064,0,0.0001592038,,
	05/31/2022 09:05:07.619,1.44659e+06,3910.99,98.00,6.00,-0.001059914,2.499991,-0.00264978,0.001165623,0.001151291,0.003793369,0.003344324,3959.032,3910.251,0,98.77039,,
	05/31/2022 16:39:14.929,1.47384e+06,3877.9,102.00,5.00,0.00105996,3.500003,0.00370986,0.001141604,1.531306E-09,0.003715503,3.828136E-09,3877.255,0.0052,0,0.0001341364,,
	06/01/2022 00:04:45.506,1.50057e+06,3774.06,105.00,6.00,-0.001059837,2.499997,-0.00264959,0.001124416,0.001110905,0.003659369,0.003226373,3818.872,3773.341,0,98.79839,,
	06/01/2022 07:23:11.252,1.52688e+06,3746,109.00,5.00,0.001059959,3.500016,0.00370987,0.001102718,2.296447E-09,0.003588803,5.740877E-09,3745.236,0.0078,0,0.0002082534,,
	06/01/2022 14:33:33.359,1.5527e+06,3648.4,112.00,6.00,-0.001059911,2.499997,-0.00264977,0.001086676,0.001073996,0.003536525,0.003118556,3690.681,3647.816,0,98.83316,,
	06/01/2022 21:36:48.772,1.57809e+06,3615.67,116.00,5.00,0.001060013,3.500005,0.00371005,0.001064428,2.00247E-09,0.003464512,5.006119E-09,3615.052,0.006,0,0.0001881263,,
	06/02/2022 04:32:33.608,1.60304e+06,3525.5,119.00,6.00,-0.001059866,2.499995,-0.00264966,0.001050051,0.001037816,0.003417521,0.003012788,3566.446,3525.004,0,98.83482,,
	06/02/2022 11:21:58.226,1.6276e+06,3495.79,123.00,5.00,0.001059892,3.50001,0.00370963,0.001029036,1.648691E-09,0.0033491,4.121631E-09,3495.143,0.0056,0,0.0001602171,,
	06/02/2022 18:03:48.000,1.65171e+06,3404.32,126.00,6.00,-0.001060171,2.499984,-0.00265041,0.001015052,0.001002248,0.003303373,0.002908699,3447.441,3403.756,0,98.73858,,
	06/03/2022 00:39:03.128,1.67543e+06,3378.21,130.00,5.00,0.00105995,3.500009,0.00370983,0.0009944591,2.1495E-09,0.003236444,5.373487E-09,3377.639,0.0065,0,0.0002161476,,
	06/03/2022 07:07:11.503,1.69872e+06,3287.99,133.00,6.00,-0.001059958,2.499988,-0.00264988,0.0009799547,0.0009679595,0.003189225,0.002808095,3328.432,3287.469,0,98.77595,,
	06/03/2022 13:28:59.090,1.72163e+06,3258.1,137.00,5.00,0.001059902,3.500001,0.00370966,0.0009591108,1.678113E-09,0.003121328,4.195228E-09,3257.558,0.0057,0,0.0001749655,,
	06/03/2022 19:43:09.445,1.74408e+06,3169.44,140.00,6.00,-0.00105988,2.499997,-0.0026497,0.0009443421,0.0009329767,0.003073384,0.002705731,3207.434,3168.866,0,98.79648,,
	06/04/2022 01:51:26.496,1.76617e+06,3147.06,144.00,5.00,0.001059848,3.500009,0.00370948,0.0009263708,1.530998E-09,0.003014834,3.827362E-09,3146.514,0.0052,0,0.0001652684,,
	06/04/2022 07:52:42.680,1.78785e+06,3057.21,147.00,6.00,-0.001059947,2.499986,-0.00264985,0.0009119047,0.0008999805,0.002967596,0.002609126,3097.385,3056.655,0,98.69239,,
	06/04/2022 13:47:36.989,1.80914e+06,3027.75,151.00,5.00,0.001059943,3.500005,0.00370981,0.0008913077,1.501386E-09,0.002900575,3.753349E-09,3027.293,0.0051,0,0.0001684476,,
	06/04/2022 19:35:04.673,1.82999e+06,2941.3,154.00,6.00,-0.001060151,2.49999,-0.00265037,0.0008773195,0.000865886,0.002855173,0.002509153,2979.739,2940.756,0,98.69676,,
	06/05/2022 01:16:28.773,1.85047e+06,2913.75,158.00,5.00,0.001059968,3.500005,0.00370989,0.0008577862,1.531291E-09,0.002791585,3.827981E-09,2913.313,0.0052,0,0.0001785167,,
	06/05/2022 06:50:40.100,1.87053e+06,2828.43,161.00,6.00,-0.001059886,2.499995,-0.00264971,0.0008434107,0.000832613,0.002744784,0.002411909,2864.51,2828.027,0,98.71976,,
	06/05/2022 12:18:52.242,1.89022e+06,2798.9,165.00,5.00,0.001059966,3.500007,0.00370989,0.0008239485,2.267845E-09,0.002681386,5.669321E-09,2798.505,0.0064,0,0.0002752411,,
	06/05/2022 17:39:41.427,1.90947e+06,2714.71,168.00,6.00,-0.001060152,2.499988,-0.00265037,0.0008096369,0.0007992937,0.002634679,0.002314838,2749.794,2714.255,0,98.7225,,
	06/05/2022 22:54:45.552,1.92837e+06,2688.65,172.00,5.00,0.001059964,3.500005,0.00370988,0.0007914779,1.972569E-09,0.002575626,4.931359E-09,2688.182,0.0056,0,0.0002492261,,
	06/06/2022 04:02:47.461,1.94685e+06,2604.57,175.00,6.00,-0.001059946,2.49999,-0.00264985,0.0007769487,0.0007667405,0.002527926,0.00222005,2638.913,2604.162,0,98.68612,,
	06/06/2022 09:04:56.324,1.96498e+06,2578.83,179.00,5.00,0.00105992,3.500007,0.00370973,0.0007591218,2.031584E-09,0.002469841,5.078676E-09,2578.354,0.0069,0,0.0002676229,,
	06/06/2022 13:59:23.306,1.98265e+06,2481.86,182.00,6.00,-0.001060166,2.499988,-0.0026504,0.0007408482,0.0007305752,0.002410722,0.00211398,2516.221,2481.499,0,98.61335,,
	06/06/2022 18:47:03.773,1.99991e+06,2453.9,186.00,5.00,0.001059983,3.500005,0.00370995,0.0007224062,2.120367E-09,0.002350605,5.301163E-09,2453.506,0.0064,0,0.0002935145,,
	06/06/2022 23:27:47.284,2.01675e+06,2371.14,189.00,6.00,-0.001059891,2.499997,-0.00264972,0.0007074548,0.0006979625,0.002302194,0.002018902,2402.801,2370.708,0,98.65824,,
	06/07/2022 04:02:25.876,2.03323e+06,2342.33,193.00,5.00,0.00105992,3.50002,0.00370974,0.0006895303,2.120128E-09,0.002243449,5.299981E-09,2341.971,0.0064,0,0.0003074743,,
	06/07/2022 08:31:16.424,2.04936e+06,2271.02,196.00,6.00,-0.001060004,2.499999,-0.00265001,0.0006782869,0.0006685818,0.002206848,0.00193378,2303.839,2270.676,0,98.56917,,
	06/07/2022 12:53:31.127,2.0651e+06,2231.16,200.00,5.00,0.001059999,3.500001,0.00371,0.0006568216,1.8254E-09,0.002137043,4.563328E-09,2230.758,0.0054,0,0.0002779141,,
	06/07/2022 13:30:10.557,2.0673e+06,2199.41,200.00,6.00,-0.001060153,2.499993,-0.00265038,0.0006568229,0.0006475522,0.002137047,0.001871974,2230.762,2199.063,0,98.58855,,