File: Cell-test-data/SiMP-LFP-PFP1/JB5_SiMP-LFP-PFP1_Channel_78_StatisticByStep.CSV
Date_Time                    ,Test Time (s),Step Time (s),Cycle Index,Step Index,Current (A),Voltage (V),Power (W),Charge Capacity (Ah),Discharge Capacity (Ah),Charge Energy (Wh),Discharge Energy (Wh),Charge Time (s),Discharge Time (s),V_Max_On_Cycle (V),Coulombic Efficiency (%),mAh/g
	08/05/2022 01:53:05.059,43200,43200,1.00,1.00,0,0.2124748,0,0,0,0,0,0,0,0,0,,
	08/10/2022 12:12:08.551,512343,7264.19,9.00,6.00,-0.001060026,2.499991,-0.00265006,0.002173738,0.002138737,0.007079645,0.006187292,7381.716,7263.252,0,98.38983,,
	08/11/2022 22:33:50.768,636046,6436.65,18.00,6.00,-0.001060078,2.499999,-0.00265019,0.00193225,0.001895075,0.006294901,0.005493877,6561.707,6435.799,0,98.07608,,
	08/13/2022 04:49:56.878,745012,5691.72,27.00,6.00,-0.001060082,2.499988,-0.00265019,0.001706328,0.001675753,0.005567726,0.00486256,5794.712,5691.003,0,98.20815,,
	08/14/2022 07:47:35.172,842070,5086.88,36.00,6.00,-0.001060066,2.499995,-0.00265016,0.001522179,0.001497687,0.0049739,0.004347431,5169.26,5086.257,0,98.39101,,
	08/15/2022 08:09:00.881,929756,4646.11,45.00,6.00,-0.001060017,2.499976,-0.00265002,0.001388803,0.001367867,0.004539913,0.003975706,4716.314,4645.533,0,98.49249,,
	08/16/2022 06:28:44.224,1.01014e+06,4289.68,54.00,6.00,-0.001060015,2.499993,-0.00265003,0.001281397,0.001262927,0.004189286,0.003675423,4351.383,4289.137,0,98.55862,,
	08/17/2022 02:58:40.241,1.08394e+06,3959.26,63.00,6.00,-0.001059973,2.499988,-0.00264992,0.001181171,0.001165575,0.003863851,0.003392593,4011.448,3958.725,0,98.67957,,
	08/17/2022 21:59:41.957,1.1524e+06,3612.98,72.00,6.00,-0.001060052,2.499991,-0.00265012,0.001076519,0.001063751,0.003526901,0.003090319,3655.703,3612.506,0,98.814,,
	08/18/2022 15:31:20.054,1.21549e+06,3382.43,81.00,6.00,-0.001060041,2.499995,-0.0026501,0.001007358,0.0009958579,0.003301436,0.002893225,3420.926,3382.001,0,98.85837,,
	08/19/2022 07:56:15.260,1.27459e+06,3170.81,90.00,6.00,-0.001060106,2.499999,-0.00265026,0.0009436302,0.0009335831,0.003094231,0.00271116,3204.423,3170.403,0,98.93527,,
	08/19/2022 23:25:41.000,1.33036e+06,3004.97,99.00,6.00,-0.001060083,2.49998,-0.00265019,0.0008935069,0.0008847203,0.002930373,0.002569508,3034.198,3004.581,0,99.01662,,
	08/20/2022 14:05:21.631,1.38314e+06,2848.69,108.00,6.00,-0.001060112,2.499967,-0.00265025,0.0008476932,0.000838745,0.002780965,0.00243543,2878.599,2848.338,0,98.9444,,
	08/21/2022 04:00:56.597,1.43327e+06,2708.92,117.00,6.00,-0.001060108,2.499995,-0.00265026,0.0008051926,0.000797584,0.002642286,0.002315184,2734.326,2708.555,0,99.05505,,
	08/21/2022 17:17:01.589,1.48104e+06,2589.87,126.00,6.00,-0.0010601,2.499999,-0.00265025,0.0007696257,0.0007625055,0.002526099,0.002213125,2613.57,2589.516,0,99.07486,,
	08/22/2022 05:57:28.626,1.52666e+06,2469.69,135.00,6.00,-0.001060124,2.499991,-0.0026503,0.0007338646,0.0007271646,0.002409651,0.002109217,2492.149,2469.357,0,99.08702,,
	08/22/2022 18:07:52.598,1.57049e+06,2383.54,144.00,6.00,-0.001060043,2.499988,-0.00265009,0.0007078871,0.000701765,0.002324356,0.002035868,2404.276,2383.214,0,99.13516,,
	08/23/2022 05:50:27.642,1.61264e+06,2288.86,153.00,6.00,-0.001060064,2.499986,-0.00265015,0.00068003,0.0006739212,0.002233424,0.001954359,2309.3,2288.588,0,99.10168,,
	08/23/2022 17:07:00.504,1.65324e+06,2207.48,162.00,6.00,-0.001060045,2.499997,-0.00265011,0.0006556904,0.0006499312,0.002153773,0.001884456,2226.662,2207.204,0,99.12167,,
	08/24/2022 03:58:01.187,1.6923e+06,2122.88,171.00,6.00,-0.001060136,2.499982,-0.00265032,0.0006300361,0.0006250564,0.002070124,0.001811168,2139.512,2122.588,0,99.20962,,
	08/24/2022 14:26:21.582,1.73e+06,2065.06,180.00,6.00,-0.001060044,2.499997,-0.00265011,0.0006126819,0.0006079989,0.002013062,0.001762058,2080.679,2064.797,0,99.23566,,
	08/25/2022 00:36:14.616,1.76659e+06,1990.04,189.00,6.00,-0.001060148,2.499995,-0.00265036,0.0005904783,0.0005859438,0.001940613,0.001697038,2005.16,1989.791,0,99.23206,,
	08/25/2022 10:25:01.554,1.80192e+06,1930.45,198.00,6.00,-0.001060069,2.499997,-0.00265017,0.0005725667,0.0005683766,0.001881972,0.00164574,1944.363,1930.182,0,99.26818,,
	08/25/2022 19:59:38.356,1.83639e+06,1880.72,207.00,6.00,-0.001060119,2.499997,-0.00265029,0.0005580782,0.0005537385,0.001834338,0.001603277,1895.137,1880.482,0,99.22239,,
	08/26/2022 05:15:30.206,1.86975e+06,1819.11,216.00,6.00,-0.001060128,2.499988,-0.00265031,0.0005395694,0.0005356197,0.001773986,0.001549833,1832.318,1818.865,0,99.268,,
	08/26/2022 14:16:24.696,1.9022e+06,1781.55,225.00,6.00,-0.001060061,2.499999,-0.00265015,0.0005281304,0.0005245345,0.001736264,0.001517998,1793.593,1781.339,0,99.31912,,
	08/26/2022 23:04:39.039,1.93389e+06,1728.1,234.00,6.00,-0.001060101,2.49998,-0.00265023,0.0005126682,0.0005088304,0.001685722,0.001471756,1740.966,1727.894,0,99.2514,,
	08/27/2022 07:36:52.592,1.96463e+06,1679.65,243.00,6.00,-0.00106015,2.499993,-0.00265037,0.0004978611,0.0004945341,0.001637358,0.001429685,1690.672,1679.44,0,99.33175,,
	08/27/2022 15:56:58.853,1.99463e+06,1646.12,252.00,6.00,-0.001060091,2.499999,-0.00265023,0.0004881293,0.0004846658,0.001605318,0.001401233,1657.619,1645.895,0,99.29046,,
	08/28/2022 00:05:41.317,2.02396e+06,1604.63,261.00,6.00,-0.001060111,2.499986,-0.00265026,0.0004756317,0.000472462,0.001564394,0.001365387,1615.215,1604.422,0,99.33358,,
	08/28/2022 08:01:12.327,2.05249e+06,1562.45,270.00,6.00,-0.00106017,2.499988,-0.00265041,0.0004631488,0.0004600442,0.00152358,0.001328967,1572.787,1562.241,0,99.32966,,
	08/28/2022 15:46:55.210,2.08043e+06,1534.5,279.00,6.00,-0.001060082,2.499988,-0.00265019,0.000454983,0.0004518113,0.001496627,0.001305222,1545.036,1534.302,0,99.30289,,
	08/28/2022 23:22:53.642,2.10779e+06,1499.46,288.00,6.00,-0.001059859,2.499995,-0.00264964,0.0004443976,0.0004414745,0.001461926,0.001274906,1509.117,1499.259,0,99.34224,,
	08/29/2022 06:47:55.667,2.13449e+06,1462.89,297.00,6.00,-0.001060114,2.499997,-0.00265028,0.0004334506,0.0004306882,0.001426126,0.001243234,1471.966,1462.703,0,99.36269,,
	08/29/2022 14:04:17.557,2.16067e+06,1442.01,306.00,6.00,-0.001060084,2.499976,-0.00265018,0.0004270685,0.0004245645,0.001405014,0.001225733,1450.26,1441.828,0,99.41369,,
	08/29/2022 21:13:17.530,2.18641e+06,1409.54,315.00,6.00,-0.001060094,2.49997,-0.0026502,0.0004178246,0.0004150265,0.00137469,0.00119776,1418.877,1409.36,0,99.33033,,
	08/30/2022 04:12:11.184,2.21155e+06,1377.75,324.00,6.00,-0.001059836,2.499991,-0.00264958,0.0004083157,0.0004055691,0.001343559,0.001169989,1386.62,1377.573,0,99.32732,,
	08/30/2022 23:49:48.070,2.23617e+06,1343.41,333.00,6.00,-0.00106014,2.499995,-0.00265034,0.0003983242,0.0003955516,0.001310589,0.001140997,1352.678,1343.224,0,99.30392,,
	08/31/2022 06:28:55.005,2.26012e+06,1312.84,342.00,6.00,-0.001059816,2.499997,-0.00264954,0.0003890094,0.0003864623,0.00127992,0.001114304,1321.066,1312.655,0,99.34523,,
	08/31/2022 13:00:33.235,2.28362e+06,1296.42,351.00,6.00,-0.001060073,2.499982,-0.00265016,0.000383919,0.0003816941,0.001262966,0.001100655,1304.009,1296.245,0,99.42048,,
	08/31/2022 19:27:35.334,2.30684e+06,1274.71,360.00,6.00,-0.00106011,2.499999,-0.00265027,0.0003777159,0.0003753046,0.001242513,0.001082074,1282.651,1274.53,0,99.3616,,
	09/01/2022 01:47:14.259,2.32962e+06,1250.79,369.00,6.00,-0.001060073,2.499995,-0.00265018,0.0003705184,0.0003682599,0.001218886,0.001061515,1258.237,1250.615,0,99.39046,,
	09/01/2022 07:59:31.304,2.35196e+06,1224.94,378.00,6.00,-0.001060097,2.499991,-0.00265023,0.0003629824,0.0003606474,0.001194154,0.001039197,1232.715,1224.767,0,99.35671,,
	09/01/2022 14:05:07.977,2.37389e+06,1202.58,387.00,6.00,-0.001060064,2.49999,-0.00265015,0.000356378,0.0003540658,0.001172475,0.001019975,1210.193,1202.41,0,99.3512,,
	09/01/2022 20:02:49.623,2.39535e+06,1177.64,396.00,6.00,-0.001060114,2.499993,-0.00265028,0.0003488511,0.0003467363,0.001147836,0.0009985035,1184.623,1177.48,0,99.39378,,
	09/02/2022 01:55:00.955,2.41649e+06,1163.32,405.00,6.00,-0.001060073,2.49999,-0.00265017,0.0003445041,0.0003425103,0.001133451,0.0009863271,1169.86,1163.156,0,99.42126,,
	09/02/2022 07:40:37.865,2.43722e+06,1138.42,414.00,6.00,-0.001060124,2.49999,-0.0026503,0.0003372318,0.0003351887,0.001109641,0.000964814,1145.214,1138.247,0,99.39415,,
	09/02/2022 13:20:41.066,2.45763e+06,1126.35,423.00,6.00,-0.001060064,2.499993,-0.00265015,0.0003334737,0.0003316156,0.001097188,0.0009546081,1132.413,1126.196,0,99.4428,,
	09/02/2022 18:56:59.732,2.4778e+06,1107.77,432.00,6.00,-0.00106008,2.499999,-0.0026502,0.0003282424,0.0003261536,0.001080001,0.0009387113,1114.645,1107.608,0,99.36366,,
	09/03/2022 00:27:24.280,2.49763e+06,1090.6,441.00,6.00,-0.00106005,2.499988,-0.00265011,0.0003229486,0.0003210947,0.001062625,0.0009239736,1096.668,1090.445,0,99.42596,,
	09/03/2022 05:52:22.047,2.51713e+06,1072.36,450.00,6.00,-0.001060031,2.49999,-0.00265007,0.0003176968,0.0003157193,0.001045366,0.0009082977,1078.937,1072.201,0,99.37753,,
	09/03/2022 11:12:28.776,2.53633e+06,1057.09,459.00,6.00,-0.001060031,2.499997,-0.00265007,0.0003131004,0.0003112256,0.001030242,0.0008952804,1063.236,1056.943,0,99.40121,,
	09/03/2022 16:27:07.554,2.55521e+06,1037.18,468.00,6.00,-0.001060097,2.499972,-0.00265021,0.0003072448,0.0003053721,0.001011049,0.000878148,1043.352,1037.032,0,99.39048,,
	09/03/2022 21:36:14.820,2.57376e+06,1020.25,477.00,6.00,-0.001060058,2.499995,-0.00265014,0.0003021453,0.0003003829,0.0009943116,0.0008635882,1026.03,1020.106,0,99.41672,,
	09/04/2022 02:41:35.977,2.59208e+06,1011.3,486.00,6.00,-0.001060063,2.49999,-0.00265015,0.0002994654,0.0002977517,0.000985417,0.000856096,1016.932,1011.151,0,99.42776,,
	09/04/2022 07:44:05.448,2.61023e+06,999.3899,495.00,6.00,-0.001060078,2.499995,-0.00265019,0.0002960861,0.0002942343,0.0009742643,0.0008459323,1005.444,999.252,0,99.37457,,
	09/04/2022 12:08:14.227,2.62608e+06,980.4637,503.00,6.00,-0.001060075,2.499999,-0.00265019,0.000290368,0.0002886621,0.0009555406,0.0008295905,986.0562,980.2799,0,99.41251,,