File: Cell-test-data/SiMP-LFP-PFP1/JB5_SiMP-LFP-PFP1_Channel_78_StatisticByCycle.CSV
Date_Time                    ,Test Time (s),Step Time (s),Cycle Index,Step Index,Current (A),Voltage (V),Power (W),Charge Capacity (Ah),Discharge Capacity (Ah),Charge Energy (Wh),Discharge Energy (Wh),Charge Time (s),Discharge Time (s),V_Max_On_Cycle (V),Coulombic Efficiency (%),mAh/g
	08/06/2022 15:09:27.244,177382,61787.4,1,3,-0.0001589868,2.499993,-0.000397466,0.003196866,0.002728391,0.01062296,0.008092475,72384.87,61779.13,0,85.34582,,
	08/10/2022 16:14:23.638,526879,7203.64,10,6,-0.001060045,2.499991,-0.0026501,0.002158581,0.002120904,0.007026407,0.006140517,7330.42,7202.733,0,98.25454,,
	08/12/2022 02:06:44.045,648819,6322.24,19,6,-0.001060019,2.499991,-0.00265004,0.001899262,0.001861445,0.006189391,0.005394182,6450.172,6321.441,0,98.00886,,
	08/13/2022 07:58:28.217,756323,5603.235,28,6,-0.001060108,2.499999,-0.00265027,0.001680668,0.001649774,0.005485416,0.004786045,5707.33,5602.556,0,98.16183,,
	08/14/2022 10:36:36.903,852212,5033.83,37,6,-0.001060012,2.499999,-0.00265003,0.001503941,0.001482013,0.004915211,0.00430265,5107.199,5033.192,0,98.54197,,
	08/15/2022 10:43:22.962,939018,4598.21,46,6,-0.001059985,2.499997,-0.00264996,0.001373192,0.001353751,0.004489659,0.003934918,4663.22,4597.636,0,98.58423,,
	08/16/2022 08:51:18.651,1.01869e+06,4245.09,55,6,-0.001060027,2.499991,-0.00265006,0.001268797,0.001249846,0.004148183,0.003636826,4308.732,4244.563,0,98.50641,,
	08/17/2022 05:10:29.026,1.09184e+06,3928.47,64,6,-0.001059935,2.499995,-0.00264983,0.001171816,0.001156535,0.003833224,0.003366591,3979.763,3927.99,0,98.69601,,
	08/17/2022 23:59:55.282,1.15961e+06,3585.57,73,6,-0.001060033,2.49999,-0.00265007,0.001068148,0.001055664,0.003499605,0.00306691,3627.238,3585.114,0,98.83122,,
	08/18/2022 17:24:00.201,1222255.143,3361.68,82,6,-0.001060041,2.499995,-0.0026501,0.001000641,0.0009897114,0.003279546,0.002875616,3397.97,3361.243,0,98.90775,,
	08/19/2022 09:41:50.775,1.28093e+06,3150.62,91,6,-0.001060131,2.499999,-0.00265033,0.0009377363,0.0009276517,0.003075036,0.002694004,3184.413,3150.219,0,98.92458,,
	08/20/2022 01:05:44.099,1336359.041,2985.73,100,6,-0.001060041,2.499991,-0.00265009,0.00088842,0.0008790681,0.002913815,0.002552981,3016.935,2985.362,0,98.94736,,
	08/20/2022 15:40:12.465,1388827.407,2831.21,109,6,-0.001060096,2.499993,-0.00265023,0.0008419607,0.0008335855,0.002762342,0.002420376,2859.171,2830.865,0,99.00527,,
	08/21/2022 05:31:09.845,1.43868e+06,2693.22,118,6,-0.001060184,2.499999,-0.00265046,0.0008008373,0.0007929893,0.002628142,0.00230171,2719.621,2692.869,0,99.02003,,
	08/21/2022 18:43:18.684,1.48621e+06,2576.69,127,6,-0.001060036,2.49999,-0.00265008,0.0007656388,0.0007586326,0.002513103,0.002201784,2599.98,2576.354,0,99.08492,,
	08/22/2022 07:19:46.943,1.5316e+06,2458.62,136,6,-0.00106015,2.49998,-0.00265035,0.0007300967,0.0007238603,0.002397367,0.002099643,2479.324,2458.307,0,99.14581,,
	08/22/2022 19:27:19.139,1.57525e+06,2372.94,145,6,-0.00106007,2.499999,-0.00265017,0.0007047594,0.0006986437,0.002314183,0.002026809,2393.234,2372.629,0,99.13223,,
	08/23/2022 07:06:43.392,1.61722e+06,2278,154,6,-0.001060058,2.49998,-0.00265012,0.0006765323,0.0006707131,0.002222038,0.001944951,2297.389,2277.7,0,99.13985,,
	08/23/2022 18:20:36.099,1.65765e+06,2198.58,163,6,-0.001060068,2.499997,-0.00265017,0.00065276,0.0006473137,0.002144194,0.001876832,2216.677,2198.292,0,99.16565,,
	08/24/2022 05:08:47.490,1.69654e+06,2114.8,172,6,-0.001060154,2.499988,-0.00265037,0.0006275632,0.0006226802,0.002062056,0.001804188,2131.148,2114.514,0,99.22191,,
	08/24/2022 15:35:17.099,1.73413e+06,2059.6,181,6,-0.001060061,2.499993,-0.00265015,0.0006112147,0.0006063749,0.002008179,0.001757468,2075.586,2059.35,0,99.20818,,
	08/25/2022 01:42:34.579,1.77057e+06,1982.12,190,6,-0.001060142,2.499997,-0.00265035,0.0005882107,0.0005836062,0.001933214,0.001690158,1997.517,1981.877,0,99.21721,,
	08/25/2022 11:29:27.945,1.80578e+06,1926.72,199,6,-0.001060035,2.499993,-0.00265008,0.0005710978,0.0005672818,0.001877125,0.001642696,1939.344,1926.476,0,99.33181,,
	08/25/2022 21:02:17.973,1.84015e+06,1872.63,208,6,-0.001060096,2.499993,-0.00265023,0.0005555872,0.0005513589,0.001826202,0.001596233,1886.685,1872.376,0,99.23895,,
	08/26/2022 06:16:12.022,1873386.964,1814.71,217,6,-0.001060138,2.499995,-0.00265034,0.000537955,0.0005343257,0.001768733,0.001546069,1826.798,1814.488,0,99.32536,,
	08/26/2022 15:15:54.080,1.90577e+06,1778.22,226,6,-0.001060012,2.499999,-0.00265003,0.0005273381,0.0005235439,0.001733602,0.001515226,1790.864,1777.997,0,99.28049,,
	08/27/2022 00:02:15.720,1.93735e+06,1722.28,235,6,-0.001060124,2.499988,-0.0026503,0.0005106677,0.0005071066,0.001679193,0.00146664,1734.146,1722.058,0,99.30265,,
	08/27/2022 08:32:55.078,1967990.02,1675.36,244,6,-0.001060129,2.499997,-0.00265032,0.0004967294,0.0004932868,0.001633657,0.001426134,1686.85,1675.14,0,99.30695,,
	08/27/2022 16:51:53.294,1.99793e+06,1641.37,253,6,-0.001060044,2.499974,-0.00265008,0.0004867152,0.0004832673,0.001600679,0.001397137,1652.789,1641.171,0,99.29159,,
	08/28/2022 00:59:11.159,2.02717e+06,1598.87,262,6,-0.001059898,2.49999,-0.00264973,0.0004743054,0.0004707026,0.001560064,0.001360218,1610.69,1598.66,0,99.24041,,
	08/28/2022 08:53:22.264,2.05562e+06,1559.78,271,6,-0.001060138,2.499997,-0.00265034,0.0004622843,0.0004592549,0.001520705,0.00132672,1569.894,1559.58,0,99.34468,,
	08/28/2022 16:38:05.946,2.0835e+06,1530.14,280,6,-0.001060098,2.49999,-0.00265023,0.0004535928,0.0004505184,0.001492078,0.001301421,1540.329,1529.953,0,99.32223,,
	08/29/2022 00:12:55.045,2.11079e+06,1495.7,289,6,-0.00105984,2.499995,-0.00264959,0.0004433094,0.0004403985,0.001458359,0.001271765,1505.439,1495.503,0,99.34338,,
	08/29/2022 07:36:44.471,2.13742e+06,1459.59,298,6,-0.001059824,2.499993,-0.00264955,0.0004325638,0.0004297237,0.001423215,0.00124042,1468.949,1459.38,0,99.34342,,
	08/29/2022 14:52:26.350,2.16356e+06,1439.63,307,6,-0.001060083,2.499986,-0.00265019,0.0004266741,0.0004238656,0.001403694,0.00122373,1448.918,1439.456,0,99.34175,,
	08/29/2022 22:00:18.154,2.18923e+06,1405.71,316,6,-0.00106015,2.499991,-0.00265037,0.0004165874,0.0004138973,0.001370635,0.00119443,1414.668,1405.51,0,99.35424,,
	08/30/2022 17:45:33.888,2.21432e+06,1434.73,325,6,-0.001060061,2.499988,-0.00265014,0.0003938423,0.0004224183,0.001311227,0.001221158,1337.402,1434.527,0,107.2557,,
	08/31/2022 00:34:36.217,2.23886e+06,1339.34,334,6,-0.001060142,2.499986,-0.00265034,0.0003971163,0.0003943345,0.001306592,0.001137401,1348.563,1339.148,0,99.2995,,
	08/31/2022 07:12:42.913,2.26275e+06,1309.73,343,6,-0.001060147,2.499988,-0.00265035,0.0003880895,0.0003855829,0.00127689,0.001111743,1317.935,1309.548,0,99.3541,,
	08/31/2022 13:43:52.294,2.28622e+06,1295.39,352,6,-0.001060101,2.499995,-0.00265025,0.0003837826,0.0003813927,0.001262461,0.001099828,1303.433,1295.217,0,99.37726,,
	08/31/2022 20:10:07.419,2.30939e+06,1271.9,361,6,-0.001060103,2.49999,-0.00265025,0.0003769064,0.0003744792,0.001239867,0.001079684,1279.95,1271.724,0,99.35603,,
	09/01/2022 02:28:58.831,2.33212e+06,1248.18,370,6,-0.001060047,2.499984,-0.0026501,0.0003698438,0.0003674827,0.001216667,0.001059228,1256.163,1247.989,0,99.3616,,
	09/01/2022 08:40:23.965,2.35441e+06,1222.78,379,6,-0.001060063,2.499993,-0.00265015,0.0003621037,0.000360008,0.001191286,0.001037309,1229.655,1222.612,0,99.42123,,
	09/01/2022 14:45:14.886,2.3763e+06,1199.75,388,6,-0.001060106,2.499976,-0.00265024,0.0003554173,0.0003532362,0.00116934,0.001017544,1206.932,1199.579,0,99.38631,,
	09/01/2022 20:42:09.082,2.39771e+06,1176.2,397,6,-0.001060117,2.499995,-0.00265029,0.0003483709,0.0003463068,0.001146241,0.0009972728,1183.042,1176.033,0,99.4075,,
	09/02/2022 02:33:49.106,2.41881e+06,1160.21,406,6,-0.00106011,2.499999,-0.00265027,0.0003438699,0.0003416048,0.001131363,0.0009836657,1167.719,1160.052,0,99.34127,,
	09/02/2022 08:18:38.243,2.4395e+06,1136.82,415,6,-0.001060092,2.499982,-0.00265021,0.0003366842,0.0003347156,0.001107835,0.0009634601,1143.336,1136.657,0,99.41531,,
	09/02/2022 13:58:18.275,2.45988e+06,1125.22,424,6,-0.001060072,2.499988,-0.00265017,0.0003332833,0.0003312831,0.001096547,0.0009536729,1131.77,1125.058,0,99.39983,,
	09/02/2022 19:33:56.792,2.48002e+06,1105.2,433,6,-0.001060075,2.499999,-0.00265019,0.0003273587,0.0003253974,0.001077109,0.0009364683,1111.65,1105.047,0,99.40087,,
	09/03/2022 01:03:47.339,2.49981e+06,1087.95,442,6,-0.001060078,2.499991,-0.00265019,0.0003224252,0.0003203142,0.001060899,0.0009217021,1094.891,1087.788,0,99.34526,,
	09/03/2022 06:28:09.568,2.51927e+06,1070.43,451,6,-0.001060057,2.499999,-0.00265014,0.0003170701,0.0003151535,0.001043293,0.0009066601,1076.888,1070.274,0,99.39554,,
	09/03/2022 11:47:44.925,2.53845e+06,1054.76,460,6,-0.001060115,2.499986,-0.00265027,0.0003125016,0.0003105436,0.00102827,0.0008932675,1061.198,1054.615,0,99.37343,,
	09/03/2022 17:01:43.443,2.55729e+06,1034.707,469,6,-0.001060106,2.49999,-0.00265025,0.0003065475,0.0003046503,0.00100876,0.0008760297,1040.984,1034.55,0,99.38111,,
	09/03/2022 22:10:18.782,2.5758e+06,1019.01,478,6,-0.001060075,2.49999,-0.00265018,0.0003017641,0.0003000255,0.0009930484,0.0008625891,1024.736,1018.867,0,99.42388,,
	09/04/2022 03:15:22.343,2.59411e+06,1010.27,487,6,-0.001060055,2.49999,-0.00265013,0.0002991586,0.000297452,0.0009844087,0.0008552574,1015.883,1010.133,0,99.42953,,
	09/04/2022 08:17:24.637,2.61223e+06,996.3675,496,6,-0.001060073,2.499991,-0.00265017,0.000295224,0.0002933285,0.0009714395,0.0008432647,1002.59,996.174,0,99.35794,,
	09/04/2022 12:08:14.227,2.62608e+06,980.4637,503,6,-0.001060075,2.499999,-0.00265019,0.000290368,0.0002886621,0.0009555406,0.0008295905,986.0562,980.2799,0,99.41251,,