File: Cell-test-data/SiMP-LFP-SS3/JB3_SiMPs-LFP-BSF3-A5_Channel_36_StatisticByCycle.CSV
Date_Time                    ,Test Time (s),Step Time (s),Cycle Index,Step Index,Current (A),Voltage (V),Power (W),Charge Capacity (Ah),Discharge Capacity (Ah),Charge Energy (Wh),Discharge Energy (Wh),Charge Time (s),Discharge Time (s),V_Max_On_Cycle (V),Coulombic Efficiency (%),mAh/g
	05/16/2022 16:49:43.073,178602,60805.8,1,3,-0.000159002,2.499994,-0.000397504,0.003294202,0.002685203,0.01083658,0.007969375,74586.68,60797.77,0,81.51299,,
	05/19/2022 19:12:55.351,446394,7444.09,5,6,-0.001060002,2.499994,-0.00265,0.002225689,0.002191626,0.007244471,0.006326088,7559.517,7443.112,0,98.46954,,
	05/20/2022 11:27:13.183,504851.919,7160.24,9,6,-0.00106005,2.499992,-0.00265012,0.002137147,0.002108082,0.006947057,0.006077323,7258.265,7159.316,0,98.64004,,
	05/21/2022 03:08:45.884,561345,6908.19,13,6,-0.001060023,2.499998,-0.00265006,0.002062128,0.00203388,0.006699426,0.005859871,7004.09,6907.331,0,98.63013,,
	05/21/2022 18:16:47.586,615826,6695.38,17,6,-0.001060088,2.499994,-0.00265021,0.001995599,0.001971306,0.006481639,0.005681077,6777.104,6694.5,0,98.78267,,
	05/22/2022 08:55:10.260,668529,6471.05,21,6,-0.00105996,2.499964,-0.00264986,0.001928172,0.00190506,0.00626371,0.005488827,6548.578,6470.25,0,98.80133,,
	05/22/2022 23:06:41.589,719620,6274.323,25,6,-0.001060018,2.499998,-0.00265004,0.001868377,0.001847252,0.006069618,0.005323001,6345.72,6273.524,0,98.86935,,
	05/23/2022 12:52:43.138,769182,6092.978,29,6,-0.001060006,2.499996,-0.00265001,0.001814141,0.001793898,0.005894271,0.005170367,6161.881,6092.166,0,98.88418,,
	05/24/2022 02:15:09.806,817329,5922.4,33,6,-0.001060045,2.499992,-0.0026501,0.001762753,0.001743633,0.005727761,0.005026234,5987.229,5921.632,0,98.91532,,
	05/24/2022 15:15:34.771,864154,5763.56,37,6,-0.001059944,2.49999,-0.00264985,0.001715685,0.001696789,0.005575554,0.004892962,5827.135,5762.814,0,98.89862,,
	05/25/2022 03:56:18.524,909797,5632.63,41,6,-0.001060092,2.499996,-0.00265023,0.001674744,0.001658427,0.005442102,0.004785348,5687.619,5631.902,0,99.0257,,
	05/25/2022 16:18:58.066,954357,5477.54,45,6,-0.001059984,2.499989,-0.00264995,0.001628291,0.001612563,0.005292302,0.004651665,5530.212,5476.838,0,99.03411,,
	05/26/2022 04:21:23.441,997702,5339.41,49,6,-0.001059923,2.499992,-0.0026498,0.001588492,0.001571849,0.00516327,0.00453535,5394.703,5338.724,0,98.95225,,
	05/26/2022 16:06:15.553,1.03999e+06,5206.45,53,6,-0.001059902,2.499983,-0.00264974,0.001548895,0.001532587,0.005035192,0.00442176,5260.174,5205.399,0,98.94708,,
	05/27/2022 03:33:30.334,1.08123e+06,5081.76,57,6,-0.001059856,2.499998,-0.00264964,0.001510496,0.001495953,0.004911032,0.004317203,5129.624,5081.054,0,99.03719,,
	05/27/2022 14:44:24.218,1.12148e+06,4960.98,61,6,-0.001059889,2.499998,-0.00264972,0.001476312,0.001460367,0.0048001,0.004215476,5013.466,4960.154,0,98.91998,,
	05/28/2022 01:38:59.450,1.16076e+06,4842.93,65,6,-0.001059907,2.499996,-0.00264976,0.001439052,0.001425586,0.00468011,0.004114442,4886.922,4842.017,0,99.06422,,
	05/28/2022 12:18:25.594,1.19912e+06,4734.78,69,6,-0.001059907,2.499985,-0.00264975,0.00140798,0.001393798,0.004579029,0.004023983,4781.574,4733.972,0,98.99273,,
	05/28/2022 22:43:29.132,1236627.868,4623.62,73,6,-0.001059897,2.499998,-0.00264974,0.0013738,0.001361048,0.004468512,0.003929015,4665.37,4622.879,0,99.07179,,
	05/29/2022 08:53:43.708,1.27324e+06,4514.39,77,6,-0.001059948,2.499994,-0.00264986,0.001342208,0.001328918,0.004366333,0.003836235,4557.893,4513.692,0,99.0098,,
	05/29/2022 18:51:12.238,1.30909e+06,4418.9,81,6,-0.001059978,2.499994,-0.00264994,0.001314189,0.001300896,0.004274981,0.003756367,4463.598,4418.164,0,98.98852,,
	05/30/2022 04:35:33.332,1.34415e+06,4327.23,85,6,-0.001059865,2.499979,-0.00264964,0.001286028,0.001273794,0.004183513,0.003677838,4367.254,4326.557,0,99.04871,,
	05/30/2022 14:07:43.836,1.37848e+06,4234.69,89,6,-0.001059964,2.499989,-0.0026499,0.001258735,0.001246641,0.004094702,0.003599419,4274.957,4233.908,0,99.03918,,
	05/30/2022 23:27:34.161,1.41207e+06,4144.39,93,6,-0.001059956,2.49999,-0.00264988,0.001231826,0.001220015,0.0040075,0.00352271,4183.526,4143.73,0,99.04118,,
	05/31/2022 08:35:30.948,1.44495e+06,4059.82,97,6,-0.001059888,2.499985,-0.0026497,0.001206307,0.001195096,0.003924605,0.003450385,4096.53,4059.174,0,99.07064,,
	05/31/2022 17:31:57.087,1.47714e+06,3970.72,101,6,-0.001059992,2.499996,-0.00264998,0.001180468,0.001168966,0.00384073,0.00337484,4009.214,3970.087,0,99.02569,,
	06/01/2022 02:17:20.565,1.50866e+06,3892.84,105,6,-0.001059921,2.499998,-0.0026498,0.001156899,0.001145942,0.003764009,0.003308448,3928.954,3892.191,0,99.05289,,
	06/01/2022 10:52:24.945,1.53956e+06,3812.81,109,6,-0.001059997,2.499994,-0.00264999,0.001134475,0.001122448,0.003691065,0.0032404,3852.795,3812.161,0,98.93987,,
	06/01/2022 19:17:00.970,1.56984e+06,3737.07,113,6,-0.001059964,2.499992,-0.0026499,0.001111323,0.001100171,0.003615756,0.003175662,3774.565,3736.505,0,98.99644,,
	06/02/2022 03:31:37.053,1599515.789,3665.138,117,6,-0.001059912,2.499994,-0.00264977,0.001089151,0.001078917,0.003543702,0.003114012,3698.9,3664.475,0,99.06031,,
	06/02/2022 11:36:40.513,1.62862e+06,3593.418,121,6,-0.001059914,2.499994,-0.00264978,0.001068391,0.001057751,0.003476004,0.003052674,3628.184,3592.647,0,99.00417,,
	06/02/2022 19:32:14.799,1.65715e+06,3522.22,125,6,-0.001059992,2.49999,-0.00264997,0.001046858,0.001036865,0.003406029,0.002991902,3555.469,3521.563,0,99.04543,,
	06/03/2022 03:18:44.398,1.68514e+06,3458.97,129,6,-0.001059898,2.499998,-0.00264974,0.001028107,0.001018225,0.003344994,0.002938296,3491.382,3458.414,0,99.03883,,
	06/03/2022 10:56:44.738,1.71262e+06,3392.755,133,6,-0.001059891,2.499998,-0.00264973,0.001008223,0.0009986581,0.003280257,0.002881521,3423.877,3391.984,0,99.05134,,
	06/03/2022 18:25:51.289,1739570.025,3328.62,137,6,-0.001059939,2.499975,-0.00264982,0.0009889455,0.0009798183,0.003217651,0.002826556,3358.704,3327.79,0,99.07707,,
	06/04/2022 01:47:08.363,1.76605e+06,3272.83,141,6,-0.001059869,2.499989,-0.00264966,0.0009723601,0.0009633562,0.003163472,0.002778958,3302.01,3272.084,0,99.07401,,
	06/04/2022 09:00:41.665,1.79206e+06,3214.35,145,6,-0.00105986,2.499994,-0.00264964,0.000955798,0.0009461861,0.00310958,0.002729122,3245.731,3213.798,0,98.99435,,
	06/04/2022 16:06:21.425,1.8176e+06,3153.34,149,6,-0.001060016,2.499996,-0.00265004,0.0009370784,0.0009283295,0.003048919,0.002676807,3182.466,3152.927,0,99.06636,,
	06/04/2022 23:04:10.576,1.84267e+06,3099.76,153,6,-0.001059933,2.499987,-0.00264982,0.0009211249,0.0009124945,0.002996883,0.002630892,3128.265,3099.222,0,99.06306,,
	06/05/2022 05:54:51.737,1.86731e+06,3045.28,157,6,-0.001059953,2.499994,-0.00264988,0.0009047497,0.0008964451,0.002943652,0.002584317,3072.588,3044.737,0,99.08211,,
	06/05/2022 12:38:45.326,1.89154e+06,2993.502,161,6,-0.001059944,2.499998,-0.00264986,0.0008899613,0.0008811803,0.002895418,0.002540049,3022.356,2992.907,0,99.01334,,
	06/05/2022 19:15:33.419,1915352.155,2944.3,165,6,-0.00106,2.499994,-0.00264999,0.0008746875,0.0008667778,0.002845684,0.002498095,2970.518,2943.889,0,99.09571,,
	06/06/2022 01:45:55.868,1.93877e+06,2895.58,169,6,-0.001059939,2.499979,-0.00264983,0.0008602324,0.0008523909,0.002798689,0.002456284,2921.352,2895.162,0,99.08845,,
	06/06/2022 08:10:10.516,1961829.252,2852.6,173,6,-0.0010599,2.499996,-0.00264975,0.0008469442,0.0008396776,0.002755497,0.002419508,2876.748,2852.036,0,99.14202,,
	06/06/2022 14:28:11.456,1.98451e+06,2803.936,177,6,-0.00105996,2.499996,-0.0026499,0.0008330484,0.0008254116,0.002710377,0.002377763,2829.132,2803.432,0,99.08327,,
	06/06/2022 20:40:45.911,2.00686e+06,2767.6,181,6,-0.001059969,2.499989,-0.00264991,0.0008224637,0.0008147402,0.002675425,0.002347504,2793.398,2767.086,0,99.06094,,
	06/07/2022 02:47:05.374,2.02884e+06,2717.63,185,6,-0.001059879,2.499994,-0.00264969,0.0008068238,0.0007999648,0.00262473,0.002304175,2739.85,2717.177,0,99.14988,,
	06/07/2022 08:48:03.804,2.0505e+06,2679.63,189,6,-0.001059875,2.499996,-0.00264968,0.0007956398,0.0007887707,0.002588428,0.00227156,2702.503,2679.139,0,99.13667,,
	06/07/2022 14:43:26.633,2071825.369,2639.01,193,6,-0.00105995,2.499989,-0.00264986,0.0007831668,0.0007768496,0.002547928,0.002236787,2659.731,2638.5,0,99.19338,,
	06/07/2022 20:33:24.380,2.09282e+06,2598.63,197,6,-0.001059907,2.499998,-0.00264977,0.0007719158,0.0007649669,0.002511383,0.002202397,2621.565,2598.192,0,99.09979,,
	06/08/2022 00:52:33.748,2.10837e+06,2572.02,200,6,-0.001059869,2.499985,-0.00264966,0.000763396,0.0007571035,0.002483586,0.002179602,2592.385,2571.58,0,99.17573,,