File: Cell-test-data/SiMP-LFP-PFOF10/JB4_SiMP-LFP-PFOF10_03C_Channel_88_StatisticByCycle.CSV
Date_Time                    ,Test Time (s),Step Time (s),Cycle Index,Step Index,Current (A),Voltage (V),Power (W),Charge Capacity (Ah),Discharge Capacity (Ah),Charge Energy (Wh),Discharge Energy (Wh),Charge Time (s),Discharge Time (s),V_Max_On_Cycle (V),Coulombic Efficiency (%),mAh/g
	07/21/2022 16:23:26.956,179304,61170.3,1,3,-0.0001590014,2.499974,-0.000397499,0.003309002,0.00270143,0.01095458,0.008020845,74923.49,61162.59,0,81.63881,,
	07/24/2022 18:01:36.169,444393.034,7155.688,5,6,-0.001060104,2.499995,-0.00265025,0.002151829,0.002106904,0.00702265,0.006095096,7307.982,7154.772,0,97.91222,,
	07/25/2022 09:19:19.996,499457,6618.74,9,6,-0.001060145,2.499963,-0.00265032,0.001991039,0.001948743,0.006498407,0.005632661,6762.005,6617.878,0,97.87569,,
	07/25/2022 23:33:38.386,550715,6168.07,13,6,-0.001059846,2.49997,-0.00264958,0.001853511,0.001815999,0.006052353,0.005253395,6295.031,6167.259,0,97.97616,,
	07/26/2022 12:49:35.790,598473,5765.31,17,6,-0.001060143,2.499974,-0.00265033,0.001729861,0.001697506,0.005652902,0.004914666,5874.942,5764.567,0,98.12958,,
	07/27/2022 01:18:16.730,643393.595,5430.63,21,6,-0.001059843,2.499959,-0.00264956,0.001627524,0.001598628,0.005320798,0.004632167,5527.556,5429.932,0,98.22449,,
	07/27/2022 13:04:02.512,685739,5142.02,25,6,-0.001060161,2.499995,-0.0026504,0.001540011,0.001513851,0.005036826,0.004388964,5230.453,5141.349,0,98.30131,,
	07/28/2022 00:15:04.365,726001,4889.2,29,6,-0.00105987,2.49999,-0.00264966,0.001461042,0.001439291,0.004780415,0.004174699,4962.198,4888.621,0,98.51128,,
	07/28/2022 10:52:11.207,764228,4659.78,33,6,-0.001059836,2.499959,-0.00264955,0.001390734,0.001371606,0.004552501,0.003979025,4723.199,4658.841,0,98.62468,,
	07/28/2022 21:01:09.994,800767,4455.21,37,6,-0.001060171,2.499978,-0.0026504,0.001332107,0.001311577,0.004360693,0.003807781,4524.057,4454.581,0,98.45878,,
	07/29/2022 06:43:05.523,835682,4269.74,41,6,-0.001060166,2.499997,-0.00265041,0.001273368,0.001256937,0.004170429,0.00364892,4324.688,4269.195,0,98.70966,,
	07/29/2022 16:02:02.745,869220,4117.41,45,6,-0.001060081,2.499953,-0.00265015,0.00122762,0.001212315,0.004020619,0.003523078,4169.131,4116.899,0,98.75327,,
	07/30/2022 01:00:22.667,901520,3939.43,49,6,-0.001060136,2.499991,-0.00265033,0.001173623,0.00115974,0.003845058,0.003368353,3985.936,3938.862,0,98.81705,,
	07/30/2022 09:36:00.192,932457,3796.52,53,6,-0.001060123,2.499995,-0.0026503,0.001129846,0.001117653,0.003702591,0.003245857,3837.219,3796.021,0,98.92078,,
	07/30/2022 17:55:20.186,962417,3693.66,57,6,-0.001060124,2.499978,-0.00265029,0.001099223,0.001087555,0.00360126,0.003161375,3733.166,3693.182,0,98.93854,,
	07/31/2022 01:57:38.458,991355,3546.3,61,6,-0.001060148,2.499986,-0.00265036,0.001055793,0.001044179,0.00346108,0.003032967,3585.602,3545.842,0,98.89999,,
	07/31/2022 09:43:52.077,1.01933e+06,3435.41,65,6,-0.001059867,2.499982,-0.00264965,0.001022225,0.001011344,0.003351481,0.002937457,3471.731,3434.941,0,98.93562,,
	07/31/2022 17:15:30.567,1.04643e+06,3335.11,69,6,-0.001060123,2.499961,-0.00265027,0.0009914277,0.000981982,0.003251071,0.002852153,3367.074,3334.649,0,99.04726,,
	08/01/2022 00:35:22.736,1.07282e+06,3241.98,73,6,-0.001060104,2.499995,-0.00265025,0.0009640848,0.0009545624,0.003161373,0.002772286,3274.227,3241.546,0,99.01229,,
	08/01/2022 07:42:21.637,1.09844e+06,3156.45,77,6,-0.001059846,2.499982,-0.0026496,0.000938306,0.0009292923,0.003077505,0.002698622,3186.763,3156.054,0,99.03938,,
	08/01/2022 14:38:34.638,1.12341e+06,3080.13,81,6,-0.001060124,2.499871,-0.00265017,0.0009154748,0.0009069066,0.003002418,0.002634725,3109.153,3079.763,0,99.06407,,
	08/01/2022 21:27:15.659,1.14793e+06,3029.922,85,6,-0.001060081,2.499972,-0.00265017,0.0008997219,0.0008921121,0.002949404,0.002593746,3055.588,3029.523,0,99.15421,,
	08/02/2022 04:08:10.714,1.17199e+06,2968.38,89,6,-0.001060037,2.499978,-0.00265007,0.0008817826,0.000873949,0.002890019,0.002541695,2994.619,2968.012,0,99.11162,,
	08/02/2022 10:38:46.766,1.19542e+06,2867.858,93,6,-0.001060127,2.499993,-0.00265031,0.0008529728,0.0008444196,0.002797097,0.002452415,2896.86,2867.498,0,98.99725,,
	08/02/2022 16:55:29.291,1.21803e+06,2784.95,97,6,-0.001060151,2.499925,-0.0026503,0.0008274443,0.000820003,0.002714869,0.002380343,2810.149,2784.558,0,99.10069,,
	08/02/2022 23:04:04.453,1.24014e+06,2735.862,101,6,-0.001059855,2.499885,-0.00264952,0.0008113838,0.0008055386,0.002661873,0.002338706,2755.607,2735.467,0,99.2796,,
	08/03/2022 05:04:55.132,1.26179e+06,2674.05,105,6,-0.001059846,2.499976,-0.00264959,0.0007930849,0.0007872144,0.002602396,0.002284394,2693.525,2673.703,0,99.2598,,
	08/03/2022 10:58:32.036,1.28301e+06,2618.23,109,6,-0.00106012,2.499953,-0.00265025,0.0007771113,0.0007709057,0.002550302,0.002236868,2639.201,2617.874,0,99.20145,,
	08/03/2022 16:46:25.581,1.30388e+06,2576.256,113,6,-0.00105985,2.499976,-0.0026496,0.0007657041,0.0007585255,0.002512266,0.002201444,2600.458,2575.938,0,99.06248,,
	08/03/2022 22:26:27.473,1.32428e+06,2524.43,117,6,-0.001060062,2.499988,-0.00265014,0.0007479819,0.0007432497,0.002454877,0.002156659,2540.214,2524.008,0,99.36734,,
	08/04/2022 04:02:00.441,1.34442e+06,2484.36,121,6,-0.001060112,2.499986,-0.00265027,0.0007371577,0.0007314616,0.002418767,0.002122461,2503.502,2483.952,0,99.2273,,
	08/04/2022 09:29:22.206,1.36406e+06,2428.6,125,6,-0.001060083,2.499894,-0.0026501,0.0007192719,0.0007150252,0.00236109,0.002073691,2442.764,2428.164,0,99.40958,,
	08/04/2022 14:51:58.382,1.38342e+06,2395.74,129,6,-0.001060136,2.499993,-0.00265033,0.0007106921,0.0007054039,0.002332206,0.002046536,2413.6,2395.421,0,99.25591,,
	08/04/2022 20:09:27.726,1.40246e+06,2356.39,133,6,-0.001060117,2.499944,-0.00265023,0.0006994996,0.0006937952,0.002295522,0.002012809,2375.588,2356.034,0,99.18451,,
	08/05/2022 01:20:33.992,1421130.857,2305.83,137,6,-0.001060148,2.499869,-0.00265023,0.0006833301,0.000678896,0.002243133,0.001968204,2320.696,2305.425,0,99.3511,,
	08/05/2022 06:25:42.350,1.43944e+06,2266.39,141,6,-0.001060145,2.499974,-0.00265033,0.0006718714,0.0006672309,0.002205758,0.001934038,2281.866,2266.07,0,99.30932,,
	08/05/2022 11:25:39.564,1.45744e+06,2231.23,145,6,-0.001060173,2.499959,-0.00265039,0.0006606479,0.0006569712,0.002169022,0.001904184,2243.748,2230.96,0,99.44347,,
	08/05/2022 16:23:35.742,1.47531e+06,2219.91,149,6,-0.001060148,2.499984,-0.00265035,0.0006581101,0.0006536373,0.002159646,0.001896273,2235.087,2219.631,0,99.32036,,
	08/05/2022 21:18:14.872,1.49299e+06,2188.407,153,6,-0.001060109,2.499997,-0.00265027,0.0006488643,0.0006443492,0.002129154,0.001869131,2203.673,2188.161,0,99.30417,,
	08/06/2022 02:07:31.996,1.51035e+06,2143.96,157,6,-0.001060136,2.499993,-0.00265033,0.0006355729,0.000631273,0.002086078,0.001830096,2158.531,2143.698,0,99.32346,,
	08/06/2022 06:51:00.813,1.52736e+06,2105.23,161,6,-0.001060122,2.499932,-0.00265023,0.0006238456,0.0006198623,0.002048163,0.001796144,2118.705,2104.964,0,99.3615,,
	08/06/2022 11:29:12.746,1.54405e+06,2068.59,165,6,-0.00106015,2.499963,-0.00265034,0.0006124866,0.0006090818,0.002011279,0.001764313,2080.109,2068.338,0,99.44411,,
	08/06/2022 16:04:53.867,1.56059e+06,2059.78,169,6,-0.001060088,2.499997,-0.00265022,0.0006099764,0.0006064542,0.002002204,0.001758139,2071.508,2059.51,0,99.42257,,
	08/06/2022 20:38:32.336,1577009.201,2035.2,173,6,-0.001060108,2.499972,-0.00265024,0.000602891,0.0005992499,0.001978655,0.001737303,2047.489,2034.948,0,99.39606,,
	08/07/2022 01:07:16.317,1.59313e+06,1993.27,177,6,-0.001060132,2.499969,-0.0026503,0.0005907377,0.0005868588,0.001939471,0.001700117,2006.307,1993.023,0,99.34339,,
	08/07/2022 05:30:54.380,1.60895e+06,1958.67,181,6,-0.001059825,2.499829,-0.00264938,0.0005798199,0.0005766602,0.001904032,0.00166992,1969.2,1958.446,0,99.45506,,
	08/07/2022 09:50:24.278,1624521.143,1927.64,185,6,-0.001060166,2.499976,-0.00265039,0.0005715399,0.0005675752,0.001877106,0.001643025,1941.112,1927.399,0,99.3063,,
	08/07/2022 14:06:40.346,1.6399e+06,1914.05,189,6,-0.001060095,2.499984,-0.00265022,0.0005669198,0.0005635631,0.001861579,0.001632109,1925.341,1913.826,0,99.4079,,
	08/07/2022 18:21:23.846,1.65518e+06,1895.88,193,6,-0.001060071,2.499991,-0.00265017,0.0005620152,0.0005582185,0.001845036,0.001617011,1908.69,1895.685,0,99.32444,,
	08/07/2022 22:32:42.293,1.67026e+06,1868.194,197,6,-0.001060083,2.499986,-0.00265019,0.0005535216,0.0005500599,0.001817366,0.001592848,1879.792,1867.975,0,99.37461,,
	08/08/2022 01:38:27.114,1.6814e+06,1843.76,200,6,-0.001060094,2.499871,-0.0026501,0.0005462392,0.0005428672,0.00179377,0.001571398,1855.059,1843.529,0,99.38269,,