File: Cell-test-data/SiMP-LFP-SS1/JB2_SiMP-LFP-SS1_Channel_72_StatisticByStep.CSV
Date_Time                    ,Test Time (s),Step Time (s),Cycle Index,Step Index,Current (A),Voltage (V),Power (W),Charge Capacity (Ah),Discharge Capacity (Ah),Charge Energy (Wh),Discharge Energy (Wh),Charge Time (s),Discharge Time (s),V_Max_On_Cycle (V),Coulombic Efficiency (%),mAh/g
	08/05/2022 01:53:56.815,43200,43200,1.00,1.00,0,0.1817322,0,0,0,0,0,0,0,0,0,,
	08/10/2022 03:10:11.108,479774,6330.76,9.00,6.00,-0.001059996,2.5,-0.00264999,0.001907817,0.001863775,0.006251357,0.00539905,6479.546,6329.822,0,97.69148,,
	08/11/2022 08:23:36.891,584980,5348.39,18.00,6.00,-0.001060059,2.499994,-0.00265014,0.001610744,0.001574596,0.005288942,0.004567363,5470.539,5347.568,0,97.75583,,
	08/12/2022 09:14:45.415,674449,4568.95,27.00,6.00,-0.001060102,2.499964,-0.00265022,0.00137132,0.00134519,0.004513034,0.003903706,4657.439,4568.255,0,98.09456,,
	08/13/2022 06:50:02.075,752165,4017.86,36.00,6.00,-0.001060043,2.499987,-0.00265009,0.001204359,0.001182831,0.003967649,0.003436798,4090.234,4017.262,0,98.21248,,
	08/14/2022 01:47:04.635,820388,3558.53,45.00,6.00,-0.001059941,2.49999,-0.00264984,0.001065762,0.001047588,0.003515325,0.003043558,3619.523,3558.022,0,98.29467,,
	08/14/2022 18:36:39.379,880963,3172.23,54.00,6.00,-0.001060035,2.5,-0.00265009,0.0009469395,0.000933894,0.003127715,0.002710799,3216.162,3171.777,0,98.62235,,
	08/15/2022 09:52:06.634,935890,2898.24,63.00,6.00,-0.001059846,2.499998,-0.00264961,0.000865278,0.0008532105,0.002858981,0.002477316,2938.599,2897.823,0,98.60535,,
	08/15/2022 23:43:54.777,985798,2659.77,72.00,6.00,-0.001059891,2.499989,-0.00264972,0.0007929046,0.0007829625,0.002621244,0.002272976,2692.923,2659.354,0,98.74612,,
	08/16/2022 12:31:14.505,1.03184e+06,2422.6,81.00,6.00,-0.001059938,2.499987,-0.00264983,0.0007222321,0.000713184,0.002389614,0.002067324,2452.923,2422.203,0,98.7472,,
	08/17/2022 00:12:30.776,1.07391e+06,2271.43,90.00,6.00,-0.001060153,2.499983,-0.00265036,0.0006762669,0.0006686651,0.002237855,0.001938593,2296.674,2271.103,0,98.87592,,
	08/17/2022 11:12:27.765,1.11351e+06,2112.98,99.00,6.00,-0.001059895,2.499985,-0.00264972,0.0006288674,0.0006220139,0.002081827,0.001801833,2135.711,2112.666,0,98.91019,,
	08/17/2022 21:19:08.967,1.14991e+06,1923.11,108.00,6.00,-0.001060016,2.499996,-0.00265004,0.0005720526,0.0005661604,0.001896271,0.001635741,1942.895,1922.833,0,98.96999,,
	08/18/2022 06:39:24.262,1.18353e+06,1805.9,117.00,6.00,-0.001060117,2.499994,-0.00265029,0.0005374183,0.0005317082,0.001781967,0.001535093,1825.259,1805.667,0,98.93749,,
	08/18/2022 15:26:33.371,1.21516e+06,1705.58,126.00,6.00,-0.001059874,2.499962,-0.00264964,0.0005064787,0.0005021198,0.001679886,0.001448493,1720.176,1705.313,0,99.13937,,
	08/18/2022 23:45:27.289,1.24509e+06,1614.32,135.00,6.00,-0.00106007,2.499998,-0.00265017,0.0004795445,0.0004753074,0.001590959,0.001369987,1628.752,1614.1,0,99.11645,,
	08/19/2022 07:38:02.917,1.27345e+06,1533.55,144.00,6.00,-0.001060069,2.499992,-0.00265016,0.0004553417,0.0004514908,0.001510995,0.001300287,1546.526,1533.298,0,99.15428,,
	08/19/2022 15:08:52.799,1.3005e+06,1467.15,153.00,6.00,-0.001059958,2.499987,-0.00264988,0.0004355077,0.000431927,0.001445316,0.00124326,1479.074,1466.936,0,99.17781,,
	08/19/2022 22:19:40.762,1.32634e+06,1401.15,162.00,6.00,-0.001059968,2.499998,-0.00264992,0.0004157659,0.0004124988,0.001380021,0.001186487,1412.043,1400.929,0,99.21419,,
	08/20/2022 05:11:42.488,1.35107e+06,1342.64,171.00,6.00,-0.001060015,2.499998,-0.00265004,0.0003984226,0.0003952748,0.001322648,0.001136188,1353.192,1342.428,0,99.20992,,
	08/20/2022 11:47:20.374,1.3748e+06,1291.66,180.00,6.00,-0.001060058,2.499979,-0.00265012,0.0003829699,0.0003802936,0.001271448,0.00109238,1300.682,1291.507,0,99.30118,,
	08/20/2022 18:07:54.165,1.39764e+06,1243.66,189.00,6.00,-0.001059994,2.499992,-0.00264998,0.0003687444,0.000366124,0.001224327,0.001051135,1252.358,1243.468,0,99.28938,,
	08/21/2022 00:14:35.119,1.41964e+06,1199.13,198.00,6.00,-0.001060035,2.5,-0.00265009,0.000355374,0.0003530233,0.00118004,0.001012905,1206.936,1198.945,0,99.33852,,
	08/21/2022 06:07:58.507,1.44084e+06,1154.4,207.00,6.00,-0.001060091,2.499992,-0.00265022,0.0003422851,0.0003398893,0.001136665,0.0009746416,1162.546,1154.228,0,99.30003,,
	08/21/2022 11:49:12.817,1.46132e+06,1118.68,216.00,6.00,-0.001059966,2.499996,-0.00264991,0.0003313265,0.0003293435,0.001100341,0.0009438736,1125.323,1118.513,0,99.40151,,
	08/21/2022 17:20:00.112,1.48116e+06,1082.69,225.00,6.00,-0.001059944,2.499983,-0.00264984,0.0003208001,0.0003187399,0.001065391,0.0009130618,1089.599,1082.514,0,99.3578,,
	08/21/2022 22:40:13.785,1.50038e+06,1048.93,234.00,6.00,-0.001060082,2.499992,-0.0026502,0.0003108348,0.0003088333,0.001032342,0.0008842392,1055.717,1048.78,0,99.35606,,
	08/22/2022 03:50:45.941,1.51901e+06,1018.3,243.00,6.00,-0.001060151,2.499998,-0.00265038,0.0003016737,0.0002998145,0.001001942,0.0008580175,1024.626,1018.147,0,99.38371,,
	08/22/2022 08:52:27.238,1.53711e+06,990.5420,252.00,6.00,-0.001060163,2.499994,-0.0026504,0.0002933513,0.0002916517,0.0009743233,0.0008343325,996.2835,990.4186,0,99.42063,,
	08/22/2022 13:46:26.337,1.55475e+06,966.2385,261.00,6.00,-0.001059908,2.499956,-0.00264972,0.0002862765,0.0002844471,0.0009508044,0.00081347,972.2949,966.0845,0,99.36098,,
	08/22/2022 18:32:51.409,1.57193e+06,939.7389,270.00,6.00,-0.001059978,2.499996,-0.00264994,0.0002783465,0.0002766612,0.0009244801,0.0007908382,945.3233,939.6046,0,99.39455,,
	08/22/2022 23:11:45.215,1.58867e+06,917.2099,279.00,6.00,-0.001059991,2.499987,-0.00264996,0.0002715642,0.0002700435,0.0009019295,0.0007716456,922.342,917.0822,0,99.44001,,
	08/23/2022 03:43:55.871,1.605e+06,894.1421,288.00,6.00,-0.001059977,2.499975,-0.00264992,0.0002647759,0.0002632311,0.0008794328,0.000751923,899.2822,894.0149,0,99.41657,,
	08/23/2022 08:09:11.604,1.62091e+06,871.4475,297.00,6.00,-0.001060058,2.499994,-0.00265014,0.0002579899,0.0002565684,0.000856858,0.0007325596,876.1682,871.3426,0,99.44897,,
	08/23/2022 12:28:14.877,1.63646e+06,853.5883,306.00,6.00,-0.001059988,2.499971,-0.00264994,0.0002527796,0.0002513022,0.000839558,0.0007174063,858.5061,853.4822,0,99.41553,,
	08/23/2022 16:41:21.542,1.65164e+06,831.5299,315.00,6.00,-0.001060029,2.499998,-0.00265007,0.0002462575,0.0002448169,0.0008178607,0.0006986183,836.352,831.425,0,99.41501,,
	08/23/2022 20:48:31.913,1.66648e+06,813.2512,324.00,6.00,-0.001060078,2.499983,-0.00265018,0.0002407555,0.0002394492,0.0007996018,0.0006830972,817.6812,813.149,0,99.45743,,
	08/24/2022 00:49:44.762,1.68095e+06,793.3525,333.00,6.00,-0.001060131,2.499989,-0.00265032,0.0002349214,0.0002335861,0.000780226,0.0006661467,797.8766,793.2384,0,99.43159,,
	08/24/2022 04:45:24.757,1.69509e+06,775.6601,342.00,6.00,-0.001060124,2.499968,-0.00265028,0.0002296246,0.0002283633,0.0007626103,0.0006510541,779.8761,775.5338,0,99.4507,,
	08/24/2022 08:36:10.223,1.70893e+06,760.1608,351.00,6.00,-0.001060031,2.49999,-0.00265007,0.0002250268,0.0002238091,0.0007473344,0.0006379176,764.3103,760.047,0,99.45882,,
	08/24/2022 12:22:32.442,1.72252e+06,747.6289,360.00,6.00,-0.001059977,2.49999,-0.00264993,0.0002211619,0.0002201101,0.0007344633,0.0006272551,751.1005,747.5312,0,99.52445,,
	08/24/2022 16:05:18.334,1.73588e+06,734.4605,369.00,6.00,-0.001059876,2.499966,-0.00264965,0.000217332,0.0002162051,0.0007217246,0.0006160283,738.1352,734.3419,0,99.48151,,
	08/24/2022 19:43:46.276,1.74899e+06,720.8485,378.00,6.00,-0.001060057,2.499981,-0.00265012,0.0002132543,0.0002122179,0.000708145,0.0006045249,724.275,720.7402,0,99.514,,
	08/24/2022 23:17:48.060,1.76183e+06,704.6586,387.00,6.00,-0.001060125,2.499987,-0.0026503,0.0002085892,0.000207476,0.0006926473,0.0005908725,708.4463,704.557,0,99.46632,,
	08/25/2022 02:47:26.807,1.77441e+06,691.0039,396.00,6.00,-0.001060054,2.499996,-0.00265013,0.0002045241,0.0002034388,0.0006791222,0.0005792341,694.6515,690.8963,0,99.46934,,
	08/25/2022 06:13:15.231,1.78676e+06,678.6846,405.00,6.00,-0.001060072,2.5,-0.00265018,0.0002008418,0.0001998235,0.0006668728,0.0005688551,682.1286,678.5748,0,99.49299,,
	08/25/2022 09:35:42.429,1.79891e+06,668.7124,414.00,6.00,-0.001060005,2.499996,-0.00265001,0.000197797,0.0001968625,0.000656747,0.0005603272,671.7699,668.6073,0,99.52754,,
	08/25/2022 12:55:30.268,1.81089e+06,661.7668,423.00,6.00,-0.001059876,2.499954,-0.00264964,0.0001959705,0.0001947985,0.0006506643,0.0005544008,665.5188,661.6375,0,99.40195,,
	08/25/2022 16:12:37.637,1.82272e+06,650.5622,432.00,6.00,-0.001059941,2.499968,-0.00264982,0.0001925288,0.0001915102,0.0006392083,0.0005449454,653.8312,650.4649,0,99.47096,,
	08/25/2022 19:26:08.865,1.83433e+06,637.8451,441.00,6.00,-0.001059957,2.49999,-0.00264988,0.0001886934,0.0001877607,0.0006264457,0.0005341495,640.8261,637.6922,0,99.5057,,
	08/25/2022 22:36:10.337,1.84573e+06,626.6306,450.00,6.00,-0.001059997,2.499949,-0.00264994,0.0001854394,0.0001844778,0.0006156269,0.0005247399,629.7689,626.5349,0,99.48147,,
	08/26/2022 01:42:56.445,1.85694e+06,616.3672,459.00,6.00,-0.001060068,2.5,-0.00265017,0.0001824446,0.0001814705,0.0006056435,0.000516083,619.6495,616.2893,0,99.46611,,
	08/26/2022 04:46:38.558,1.86796e+06,606.1289,468.00,6.00,-0.001060078,2.499996,-0.00265019,0.0001793231,0.0001784579,0.0005952635,0.0005074334,609.0538,606.0516,0,99.51749,,
	08/26/2022 07:47:23.805,1.87881e+06,597.1165,477.00,6.00,-0.001059958,2.499994,-0.00264989,0.0001766637,0.000175795,0.000586413,0.0004998022,599.9966,597.0477,0,99.50828,,
	08/26/2022 10:45:45.061,1.88951e+06,589.5941,486.00,6.00,-0.001060041,2.499992,-0.00265009,0.0001744755,0.0001735871,0.0005791198,0.0004934641,592.5948,589.5187,0,99.49084,,
	08/26/2022 13:41:59.590,1.90008e+06,582.7974,495.00,6.00,-0.001059987,2.499983,-0.00264995,0.0001724561,0.0001715769,0.0005724105,0.0004877102,585.7075,582.7265,0,99.49015,,
	08/26/2022 16:17:01.424,1.90938e+06,577.1473,503.00,6.00,-0.001059948,2.499998,-0.00264987,0.0001707968,0.0001699069,0.0005668911,0.0004829258,580.0338,577.082,0,99.47899,,