File: Cell-test-data/SiMP-LFP-SS1/JB2_SiMP-LFP-SS1_Channel_72_StatisticByCycle.CSV
Date_Time                    ,Test Time (s),Step Time (s),Cycle Index,Step Index,Current (A),Voltage (V),Power (W),Charge Capacity (Ah),Discharge Capacity (Ah),Charge Energy (Wh),Discharge Energy (Wh),Charge Time (s),Discharge Time (s),V_Max_On_Cycle (V),Coulombic Efficiency (%),mAh/g
	08/06/2022 13:05:05.031,169868,58195.7,1,3,-0.0001590149,2.499973,-0.000397533,0.003023799,0.002569857,0.0100739,0.007615788,68462.13,58186.91,0,84.9877,,
	08/10/2022 06:39:09.208,492312,6196.43,10,6,-0.001060033,2.499989,-0.00265007,0.00186692,0.001824252,0.006119766,0.005283602,6340.694,6195.551,0,97.71454,,
	08/11/2022 11:20:00.532,595564,5235.86,19,6,-0.001059966,2.499996,-0.00264991,0.001574316,0.001541411,0.005172416,0.004469616,5346.872,5235.048,0,97.90987,,
	08/12/2022 11:46:12.711,683536,4501.91,28,6,-0.001059969,2.49999,-0.00264991,0.001349878,0.001325328,0.004443567,0.00384662,4584.628,4501.223,0,98.18136,,
	08/13/2022 09:02:45.121,760128,3944.27,37,6,-0.001059991,2.499994,-0.00264997,0.0011831,0.001161179,0.003898748,0.00337237,4018.127,3943.673,0,98.1471,,
	08/14/2022 03:45:01.619,827465,3509.602,46,6,-0.00105996,2.499992,-0.00264989,0.001050239,0.001033193,0.003464766,0.003001383,3566.808,3509.072,0,98.37691,,
	08/14/2022 20:22:21.271,887304,3148.97,55,6,-0.001059927,2.499992,-0.00264981,0.0009399613,0.0009270443,0.003104634,0.002691892,3192.367,3148.494,0,98.62579,,
	08/15/2022 11:28:33.155,941676,2873.5,64,6,-0.001059879,2.49999,-0.00264969,0.0008575801,0.0008459378,0.002833633,0.002456597,2912.522,2873.067,0,98.64242,,
	08/16/2022 01:12:30.106,991113,2641.09,73,6,-0.001059857,2.499989,-0.00264963,0.0007872968,0.000777462,0.002602598,0.002257186,2673.792,2640.686,0,98.75081,,
	08/16/2022 13:51:37.654,1.03666e+06,2396.23,82,6,-0.001060006,2.499996,-0.00265001,0.0007144556,0.0007054303,0.002364229,0.00204441,2426.515,2395.846,0,98.73677,,
	08/17/2022 01:28:10.290,1.07845e+06,2256.596,91,6,-0.001059894,2.499992,-0.00264973,0.000672081,0.0006642892,0.002223988,0.001926066,2282.479,2256.284,0,98.84064,,
	08/17/2022 12:22:44.113,1.11773e+06,2096.49,100,6,-0.001059828,2.499992,-0.00264956,0.0006240635,0.0006171616,0.00206592,0.001787616,2119.487,2096.174,0,98.89404,,
	08/17/2022 22:23:07.687,1.15375e+06,1910.29,109,6,-0.001059934,2.499998,-0.00264983,0.0005676936,0.0005623937,0.001881879,0.001624786,1928.076,1909.998,0,99.06642,,
	08/18/2022 07:39:27.213,1.18713e+06,1793.45,118,6,-0.001059991,2.499973,-0.00264995,0.0005326818,0.0005279896,0.001766365,0.001524087,1809.151,1793.189,0,99.11914,,
	08/18/2022 16:23:19.772,1.21856e+06,1695.65,127,6,-0.001060024,2.499996,-0.00265006,0.0005036354,0.0004991863,0.001670488,0.00143993,1710.425,1695.407,0,99.11662,,
	08/19/2022 00:39:10.358,1.24831e+06,1604.38,136,6,-0.001060094,2.49999,-0.00265022,0.0004765051,0.0004723599,0.001580911,0.001361365,1618.358,1604.163,0,99.1301,,
	08/19/2022 08:29:08.444,1.27651e+06,1526.698,145,6,-0.001060033,2.49999,-0.00265007,0.0004529868,0.000449472,0.001503187,0.001294469,1538.558,1526.455,0,99.22409,,
	08/19/2022 15:57:43.682,1.30343e+06,1459.49,154,6,-0.00105996,2.499987,-0.00264989,0.0004331685,0.0004296726,0.001437602,0.001236688,1471.096,1459.269,0,99.19294,,
	08/19/2022 23:06:20.424,1.32914e+06,1394.27,163,6,-0.001060019,2.499933,-0.00264998,0.0004137137,0.0004104967,0.001373252,0.001180615,1405.116,1394.068,0,99.22241,,
	08/20/2022 05:56:26.239,1.35375e+06,1337.3,172,6,-0.001060025,2.499981,-0.00265004,0.0003963734,0.0003937226,0.001315846,0.001131645,1346.176,1337.121,0,99.33121,,
	08/20/2022 12:30:22.519,1.37739e+06,1286.76,181,6,-0.001060015,2.499981,-0.00265002,0.0003813199,0.0003788089,0.001265937,0.001088021,1295.079,1286.549,0,99.34151,,
	08/20/2022 18:49:18.123,1.40012e+06,1238.1,190,6,-0.001060147,2.499983,-0.00265035,0.0003667646,0.0003645308,0.00121775,0.001046386,1245.622,1237.945,0,99.39094,,
	08/21/2022 00:54:31.794,1.42203e+06,1194.32,199,6,-0.00105995,2.5,-0.002649875,0.0003539394,0.0003515986,0.001175276,0.001008715,1202.124,1194.146,0,99.33866,,
	08/21/2022 06:46:27.100,1.44315e+06,1150.43,208,6,-0.001060151,2.499996,-0.00265037,0.0003409366,0.0003387118,0.001132221,0.0009711768,1157.934,1150.27,0,99.34745,,
	08/21/2022 12:26:30.842,1.46355e+06,1115.352,217,6,-0.001060001,2.5,-0.00265,0.0003304995,0.0003283499,0.001097581,0.0009410135,1122.447,1115.172,0,99.34959,,
	08/21/2022 17:56:05.785,1.48333e+06,1079.491,226,6,-0.001060041,2.499968,-0.00265007,0.0003197485,0.0003178027,0.001061918,0.0009103419,1085.944,1079.345,0,99.39146,,
	08/21/2022 23:15:10.497,1.50247e+06,1044.96,235,6,-0.001060044,2.49999,-0.0026501,0.0003096159,0.0003076604,0.001028304,0.0008808505,1051.548,1044.795,0,99.36839,,
	08/22/2022 04:24:42.488,1.52105e+06,1015.19,244,6,-0.0010601,2.499983,-0.00265023,0.0003006425,0.0002988921,0.0009985189,0.0008553258,1021.154,1015.043,0,99.41777,,
	08/22/2022 09:25:29.475,1.53909e+06,987.9315,253,6,-0.001060069,2.499992,-0.00265016,0.0002926793,0.0002908685,0.0009721015,0.0008320664,994.1128,987.7716,0,99.38132,,
	08/22/2022 14:18:38.275,1.55668e+06,963.29,262,6,-0.00105998,2.499973,-0.00264992,0.0002851615,0.0002835943,0.0009470969,0.0008109414,968.4366,963.1545,0,99.45043,,
	08/22/2022 19:04:11.195,1.57381e+06,937.1838,271,6,-0.001060027,2.499985,-0.00265005,0.0002774727,0.0002759198,0.0009215771,0.0007886895,942.4248,937.045,0,99.44035,,
	08/22/2022 23:42:19.061,1.5905e+06,914.2075,280,6,-0.001059962,2.499964,-0.00264987,0.0002707298,0.0002691354,0.0008991591,0.0007690361,919.4302,914.0605,0,99.41106,,
	08/23/2022 04:13:44.859,1.60679e+06,892.0272,289,6,-0.001060078,2.499962,-0.00265015,0.0002640439,0.0002626176,0.000876983,0.0007501065,896.7609,891.8984,0,99.45982,,
	08/23/2022 08:38:14.464,1.62266e+06,868.8432,298,6,-0.00106005,2.499981,-0.0026501,0.0002572877,0.0002558037,0.0008545216,0.0007303962,873.8378,868.7168,0,99.42323,,
	08/23/2022 12:56:41.293,1.63816e+06,850.653,307,6,-0.001060038,2.499992,-0.00265009,0.0002519084,0.0002504291,0.0008366599,0.0007148488,855.5771,850.5085,0,99.41274,,
	08/23/2022 17:09:06.601,1.65331e+06,830.3706,316,6,-0.001059948,2.499994,-0.00264986,0.0002456997,0.0002444671,0.0008160209,0.0006976121,834.5318,830.2543,0,99.49837,,
	08/23/2022 21:15:38.327,1.6681e+06,810.8924,325,6,-0.001060006,2.499977,-0.00264999,0.0002400679,0.0002387246,0.000797312,0.0006810084,815.3621,810.7512,0,99.44045,,
	08/24/2022 01:16:11.699,1.68253e+06,791.3117,334,6,-0.001060072,2.499998,-0.00265018,0.0002342001,0.0002329782,0.0007778215,0.0006643718,795.4618,791.185,0,99.47829,,
	08/24/2022 05:11:17.039,1.69664e+06,774.1267,343,6,-0.001060083,2.499996,-0.0026502,0.0002290533,0.0002279226,0.0007607221,0.000649804,777.9807,774.0098,0,99.50636,,
	08/24/2022 09:01:31.739,1.71045e+06,758.6568,352,6,-0.001060107,2.5,-0.00265027,0.0002245647,0.0002233747,0.000745807,0.000636635,762.686,758.5552,0,99.47008,,
	08/24/2022 12:47:29.501,1.72401e+06,746.3239,361,6,-0.001059991,2.499994,-0.00264997,0.0002209953,0.0002197112,0.0007339009,0.0006261287,750.5745,746.2114,0,99.41896,,
	08/24/2022 16:29:48.423,1.73735e+06,733.1053,370,6,-0.001059994,2.499981,-0.00264996,0.0002169529,0.0002158328,0.0007204493,0.0006149569,736.8,733.0235,0,99.48375,,
	08/24/2022 20:07:47.548,1.75043e+06,718.4618,379,6,-0.001059932,2.499987,-0.00264982,0.0002127646,0.0002115131,0.0007065432,0.0006025212,722.6433,718.363,0,99.4118,,
	08/24/2022 23:41:18.806,1.76324e+06,703.3418,388,6,-0.001060049,2.5,-0.00265012,0.0002082229,0.0002070808,0.0006914436,0.0005897277,707.243,703.2351,0,99.45151,,
	08/25/2022 03:10:29.824,1.77579e+06,689.7294,397,6,-0.001060047,2.499989,-0.00265011,0.0002040843,0.000203063,0.0006776534,0.0005781461,693.1325,689.6292,0,99.49957,,
	08/25/2022 06:35:55.236,1.78812e+06,678.1943,406,6,-0.001060059,2.499998,-0.00265015,0.0002006899,0.0001996788,0.0006663976,0.0005684291,681.6613,678.0892,0,99.4962,,
	08/25/2022 09:58:01.008,1.80024e+06,667.4533,415,6,-0.001060068,2.499977,-0.00265015,0.0001975624,0.0001965026,0.0006559672,0.000559291,670.964,667.36,0,99.46354,,
	08/25/2022 13:17:33.452,1.81222e+06,659.8661,424,6,-0.001059938,2.499981,-0.00264982,0.0001952743,0.0001942434,0.0006483538,0.0005527815,663.1329,659.7431,0,99.47205,,
	08/25/2022 16:34:18.971,1.82402e+06,649.0236,433,6,-0.001059897,2.49999,-0.00264973,0.0001920344,0.000191054,0.0006375646,0.000543621,652.1558,648.9097,0,99.48948,,
	08/25/2022 19:47:24.996,1.83561e+06,636.3771,442,6,-0.001059883,2.499996,-0.0026497,0.0001883189,0.0001873244,0.0006251999,0.0005328996,639.5515,636.2245,0,99.47195,,
	08/25/2022 22:57:04.038,1.84699e+06,625.2545,451,6,-0.001059973,2.499954,-0.00264988,0.0001849944,0.0001840691,0.0006141397,0.0005235676,628.2678,625.1509,0,99.49982,,
	08/26/2022 02:03:30.336,1.85817e+06,615.1774,460,6,-0.001060103,2.499983,-0.00265024,0.0001821239,0.0001811287,0.0006045895,0.0005151324,618.5817,615.1007,0,99.45358,,
	08/26/2022 05:06:51.708,1.86917e+06,604.9229,469,6,-0.001060114,2.499998,-0.00265028,0.0001790418,0.0001781153,0.0005943284,0.0005064618,608.0956,604.8587,0,99.48251,,
	08/26/2022 08:07:19.995,1.88e+06,596.5995,478,6,-0.001060013,2.499969,-0.00265,0.0001765145,0.0001756484,0.0005859191,0.000499383,599.4678,596.5277,0,99.50935,,
	08/26/2022 11:05:26.009,1.89069e+06,588.7444,487,6,-0.00106004,2.499996,-0.0026501,0.0001743264,0.0001733401,0.0005786228,0.0004927839,592.0732,588.6725,0,99.4342,,
	08/26/2022 14:01:26.236,1901249.423,581.9567,496,6,-0.001059997,2.499983,-0.00264997,0.0001721207,0.0001713298,0.0005712949,0.0004869858,584.5621,581.8842,0,99.54048,,
	08/26/2022 16:17:01.424,1.90938e+06,577.1473,503,6,-0.001059948,2.499998,-0.00264987,0.0001707968,0.0001699069,0.0005668911,0.0004829258,580.0338,577.082,0,99.47899,,