File: Cell-test-data/SiMP-LFP-SS10/JB4_SiMPs-LFP-BSF10-A6_Channel_37_StatisticByStep.CSV
Date_Time                    ,Test Time (s),Step Time (s),Cycle Index,Step Index,Current (A),Voltage (V),Power (W),Charge Capacity (Ah),Discharge Capacity (Ah),Charge Energy (Wh),Discharge Energy (Wh),Charge Time (s),Discharge Time (s),V_Max_On_Cycle (V),Coulombic Efficiency (%),mAh/g
	05/15/2022 03:13:14.397,43200,43200,1.00,1.00,0,0.2889814,0,0,0,0,0,0,0,0,0,,
	05/19/2022 08:18:49.961,407136,6712.34,4.00,5.00,0.001060096,3.500005,0.00371034,0.00197632,2.91471E-10,0.006573088,7.286721E-10,6711.52,0.0066,0,1.474817E-05,,
	05/19/2022 19:32:41.057,447567,5590.38,7.00,6.00,-0.001059853,2.499999,-0.00264963,0.001683605,0.001645802,0.005600224,0.004603579,5717.289,5589.685,0,97.75466,,
	05/20/2022 06:14:34.685,486080,5451.84,11.00,5.00,0.001060124,3.50002,0.00371046,0.00160509,3.269217E-09,0.005338259,8.172823E-09,5451.203,0.0111,0,0.0002036781,,
	05/20/2022 16:30:44.142,523050,5175.95,14.00,6.00,-0.001060068,2.499997,-0.00265017,0.001554089,0.001524013,0.005168509,0.004264669,5277.56,5175.298,0,98.0647,,
	05/21/2022 02:26:10.541,558776,5023.65,18.00,5.00,0.001060102,3.500003,0.00371036,0.001479159,2.915797E-09,0.004919379,7.289681E-09,5022.992,0.0089,0,0.0001971254,,
	05/21/2022 11:55:36.543,592942,4770.77,21.00,6.00,-0.001060119,2.499988,-0.00265028,0.001432761,0.001404692,0.004765603,0.003926731,4865.525,4770.189,0,98.04092,,
	05/21/2022 21:07:09.704,626035,4673.57,25.00,5.00,0.001060045,3.500001,0.00371016,0.001376041,3.826761E-09,0.004577667,9.567146E-09,4672.991,0.013,0,0.0002780994,,
	05/22/2022 05:58:08.756,657894,4466.95,28.00,6.00,-0.001060149,2.499965,-0.00265034,0.001338934,0.001315148,0.004454138,0.003674937,4546.814,4466.375,0,98.22346,,
	05/22/2022 14:33:13.797,688799,4384.66,32.00,5.00,0.001060033,3.500028,0.00371015,0.001290949,1.766721E-09,0.004294715,4.416743E-09,4384.093,0.006,0,0.0001368545,,
	05/22/2022 22:52:33.672,718759,4192.51,35.00,6.00,-0.001059862,2.499995,-0.00264965,0.001256624,0.001234315,0.004180395,0.003447091,4267.598,4191.97,0,98.22468,,
	05/23/2022 06:57:01.795,747827,4123.69,39.00,5.00,0.001060075,3.500005,0.00371027,0.001214171,3.179571E-09,0.004038854,7.948592E-09,4123.192,0.0108,0,0.0002618718,,
	05/23/2022 14:47:05.391,776031,3958.9,42.00,6.00,-0.001059869,2.499986,-0.00264966,0.001185827,0.001165533,0.003944668,0.003253884,4026.971,3958.407,0,98.28861,,
	05/23/2022 22:25:24.645,803530,3903.07,46.00,5.00,0.001060156,3.500001,0.00371055,0.001149218,3.356281E-09,0.003822109,8.390798E-09,3902.601,0.0101,0,0.0002920491,,
	05/24/2022 05:50:29.657,830235,3750.79,49.00,6.00,-0.001060149,2.499991,-0.00265036,0.001122659,0.0011044,0.003733727,0.003082043,3812.406,3750.321,0,98.37361,,
	05/24/2022 13:04:43.312,856289,3688.43,53.00,5.00,0.001060136,3.500001,0.00371048,0.001086042,3.475245E-09,0.003613447,8.687746E-09,3687.981,0.0118,0,0.0003199918,,
	05/24/2022 20:06:27.824,881593,3557.17,56.00,6.00,-0.001060163,2.499982,-0.00265039,0.001063979,0.00104727,0.003539464,0.002919772,3613.467,3556.716,0,98.42957,,
	05/25/2022 02:59:28.316,906374,3542.86,60.00,5.00,0.001060084,3.500012,0.00371031,0.001043111,3.003247E-09,0.003469243,7.508073E-09,3542.391,0.0102,0,0.0002879125,,
	05/25/2022 09:45:46.057,930752,3421.42,63.00,6.00,-0.001060158,2.49999,-0.00265038,0.001025253,0.001007397,0.003408571,0.002809276,3481.765,3421.018,0,98.25837,,
	05/25/2022 16:19:11.739,954357,3359.12,67.00,5.00,0.001060124,3.50001,0.00371044,0.0009890536,2.915421E-09,0.003289366,7.287771E-09,3358.706,0.0099,0,0.0002947687,,
	05/25/2022 22:43:14.864,977400,3243.26,70.00,6.00,-0.001060116,2.499991,-0.00265028,0.0009698224,0.0009548567,0.003225248,0.002660255,3293.356,3242.871,0,98.45686,,
	05/26/2022 04:59:23.476,999969,3211.65,74.00,5.00,0.00106015,3.500001,0.00371053,0.0009455906,6.479749E-10,0.00314442,1.619888E-09,3211.22,0.0022,0,6.852594E-05,,
	05/26/2022 11:03:37.335,1.02182e+06,3056.36,77.00,6.00,-0.001060168,2.499974,-0.00265039,0.0009135847,0.0008996878,0.003044655,0.002497497,3102.58,3055.847,0,98.47886,,
	05/26/2022 16:58:15.490,1.0431e+06,3026.86,81.00,5.00,0.001060158,3.500001,0.00371055,0.0008911148,2.031758E-09,0.002969396,5.079376E-09,3026.344,0.0069,0,0.0002280018,,
	05/26/2022 22:44:45.581,1.06389e+06,2927.19,84.00,6.00,-0.001059823,2.499993,-0.00264955,0.0008755585,0.0008617745,0.002917332,0.002391532,2973.425,2926.735,0,98.42569,,
	05/27/2022 04:24:56.147,1.0843e+06,2907.74,88.00,5.00,0.001059857,3.50001,0.00370951,0.0008559978,1.767122E-09,0.002851995,4.417829E-09,2907.281,0.006,0,0.00020644,,
	05/27/2022 09:57:50.755,1.10428e+06,2813.39,91.00,6.00,-0.001059862,2.499982,-0.00264964,0.0008411505,0.0008282432,0.002802489,0.002297593,2856.737,2813.003,0,98.46551,,
	05/27/2022 15:24:56.748,1.1239e+06,2798.25,95.00,5.00,0.001059848,3.500003,0.00370947,0.0008237546,1.885067E-09,0.00274427,4.712734E-09,2797.819,0.0055,0,0.0002288385,,
	05/27/2022 20:44:52.641,1.1431e+06,2703.09,98.00,6.00,-0.001060175,2.499991,-0.00265043,0.0008083171,0.0007958292,0.002693084,0.002206774,2744.979,2702.663,0,98.45508,,
	05/28/2022 01:58:49.114,1.16193e+06,2683.58,102.00,5.00,0.001059874,3.500005,0.00370956,0.0007900363,1.560421E-09,0.002632096,3.90107E-09,2683.263,0.0053,0,0.0001975126,,
	05/28/2022 07:06:18.326,1.18038e+06,2599.08,105.00,6.00,-0.001059849,2.499993,-0.00264962,0.0007776802,0.0007651281,0.002590885,0.002120506,2641.401,2598.684,0,98.38595,,
	05/28/2022 12:09:13.277,1.19856e+06,2596.48,109.00,5.00,0.00106015,3.500005,0.00371053,0.0007643364,1.56063E-09,0.002546054,3.901753E-09,2596.018,0.0053,0,0.000204181,,
	05/28/2022 17:06:41.440,1.21641e+06,2514.87,112.00,6.00,-0.001060142,2.499995,-0.00265035,0.0007518268,0.0007404332,0.002504213,0.002051823,2553.354,2514.453,0,98.48455,,
	05/28/2022 21:59:02.396,1.23395e+06,2498.02,116.00,5.00,0.001059873,3.500009,0.00370957,0.0007354245,1.884993E-09,0.002449905,4.712419E-09,2497.601,0.0064,0,0.0002563137,,
	05/29/2022 02:45:02.277,1.25111e+06,2418.03,119.00,6.00,-0.001059848,2.499982,-0.0026496,0.0007232291,0.0007117625,0.002409278,0.001970991,2456.478,2417.594,0,98.41453,,
	05/29/2022 07:26:32.768,1.268e+06,2408.11,123.00,5.00,0.001059873,3.500003,0.00370956,0.0007088533,2.150211E-09,0.002361328,5.375496E-09,2407.706,0.0061,0,0.0003033366,,
	05/29/2022 12:03:16.169,1.2846e+06,2344.31,126.00,6.00,-0.001060142,2.499984,-0.00265034,0.0007016573,0.0006901459,0.002337025,0.001911027,2382.833,2343.83,0,98.35939,,
	05/29/2022 16:35:58.714,1.30096e+06,2332.25,130.00,5.00,0.00106013,3.500003,0.00371046,0.0006866559,1.884465E-09,0.002287162,4.711238E-09,2331.844,0.0055,0,0.0002744409,,
	05/29/2022 21:03:46.387,1.31703e+06,2265.68,133.00,6.00,-0.001060138,2.499997,-0.00265034,0.0006781985,0.000667056,0.002258807,0.001846276,2303.082,2265.343,0,98.35703,,
	05/30/2022 01:27:28.992,1.33285e+06,2257.24,137.00,5.00,0.001059848,3.500001,0.00370947,0.0006645708,2.032244E-09,0.002213448,5.080401E-09,2256.978,0.0058,0,0.000305798,,
	05/30/2022 05:46:11.106,1.34838e+06,2188.73,140.00,6.00,-0.001059853,2.499986,-0.00264962,0.0006548166,0.0006443682,0.002180896,0.001782861,2224.195,2188.371,0,98.40437,,
	05/30/2022 10:01:22.366,1.36369e+06,2187.18,144.00,5.00,0.001059839,3.500001,0.00370944,0.0006438708,1.26609E-09,0.002144347,3.165038E-09,2186.839,0.0043,0,0.0001966373,,
	05/30/2022 14:12:14.231,1.37874e+06,2120.65,147.00,6.00,-0.001060161,2.499995,-0.0026504,0.0006345466,0.0006243346,0.002113308,0.001726871,2154.84,2120.278,0,98.39067,,
	05/30/2022 18:19:19.682,1.39357e+06,2116.24,151.00,5.00,0.001060142,3.500001,0.0037105,0.0006231002,1.796722E-09,0.00207526,4.491619E-09,2115.945,0.0052,0,0.0002883521,,
	05/30/2022 22:22:08.582,1.40813e+06,2055.73,154.00,6.00,-0.001060139,2.499993,-0.00265034,0.000615107,0.000605283,0.002048534,0.001673809,2088.78,2055.423,0,98.40287,,
	05/31/2022 02:22:04.573,1.42253e+06,2056.07,158.00,5.00,0.001059865,3.50002,0.00370955,0.0006052244,2.297355E-09,0.002015605,5.742964E-09,2055.711,0.0078,0,0.0003795873,,
	05/31/2022 06:17:53.276,1.43668e+06,1995.96,161.00,6.00,-0.001060151,2.499969,-0.00265034,0.0005975235,0.0005876507,0.00199,0.001624683,2029.527,1995.595,0,98.34771,,
	05/31/2022 10:10:59.965,1.45067e+06,2003.07,165.00,5.00,0.001060161,3.500001,0.00371056,0.000589621,1.589876E-09,0.001963694,3.974721E-09,2002.721,0.0054,0,0.0002696437,,
	05/31/2022 14:00:04.900,1.46441e+06,1937.55,168.00,6.00,-0.001059827,2.499986,-0.00264955,0.0005800846,0.000570452,0.001932002,0.001576644,1969.861,1937.153,0,98.33944,,
	05/31/2022 17:46:20.046,1.47799e+06,1940.85,172.00,5.00,0.001060124,3.500005,0.00371044,0.0005714412,1.884743E-09,0.001903188,4.711942E-09,1940.501,0.0064,0,0.0003298228,,
	05/31/2022 21:29:11.383,1.49136e+06,1889.97,175.00,6.00,-0.001060092,2.499982,-0.00265021,0.0005656618,0.0005564528,0.001883873,0.001538026,1920.878,1889.643,0,98.372,,
	06/01/2022 01:09:43.110,1.50459e+06,1892.05,179.00,5.00,0.001059869,3.500009,0.00370955,0.0005569615,2.620674E-09,0.001854994,6.551557E-09,1891.786,0.0089,0,0.0004705305,,
	06/01/2022 04:46:54.498,1.51762e+06,1839.66,182.00,6.00,-0.001060139,2.499988,-0.00265033,0.0005507944,0.0005416499,0.001834449,0.001496648,1870.712,1839.361,0,98.33978,,
	06/01/2022 08:21:46.225,1.53051e+06,1845.04,186.00,5.00,0.001059832,3.500001,0.00370941,0.0005431558,1.560393E-09,0.001808991,3.900907E-09,1844.724,0.0053,0,0.0002872828,,
	06/01/2022 11:53:40.833,1.54323e+06,1796.97,189.00,6.00,-0.001060142,2.499999,-0.00265035,0.0005378296,0.0005290789,0.001790839,0.001462577,1826.366,1796.666,0,98.37295,,
	06/01/2022 15:24:16.293,1.55586e+06,1804.16,193.00,5.00,0.001060144,3.50002,0.00371053,0.000531175,1.590178E-09,0.001768076,3.975621E-09,1803.851,0.0054,0,0.0002993699,,
	06/01/2022 18:51:45.897,1.56831e+06,1758.88,196.00,6.00,-0.001060142,2.499995,-0.00265035,0.0005268278,0.0005178764,0.001753469,0.001432123,1789.032,1758.637,0,98.30089,,
	06/01/2022 22:17:08.203,1.58063e+06,1766.44,200.00,5.00,0.00106013,3.500026,0.00371048,0.0005200809,2.06134E-09,0.001730854,5.15325E-09,1766.145,0.0057,0,0.0003963498,,
	06/01/2022 22:46:04.838,1.58237e+06,1736.61,200.00,6.00,-0.001060112,2.499991,-0.00265027,0.0005200821,0.0005113089,0.001730858,0.001414136,1766.149,1736.315,0,98.31311,,