File: Cell-test-data/SiMP-LFP-SF3/JB1_SiMP-LFP-SF3_03C_Channel_85_StatisticByStep.CSV
Date_Time                    ,Test Time (s),Step Time (s),Cycle Index,Step Index,Current (A),Voltage (V),Power (W),Charge Capacity (Ah),Discharge Capacity (Ah),Charge Energy (Wh),Discharge Energy (Wh),Charge Time (s),Discharge Time (s),V_Max_On_Cycle (V),Coulombic Efficiency (%),mAh/g
	07/20/2022 02:34:26.379,43200,43200,1.00,1.00,0,0.2438545,0,0,0,0,0,0,0,0,0,,
	07/24/2022 06:45:43.624,403877,7074.05,4.00,5.00,0.001059887,3.500021,0.00370963,0.002082446,2.649961E-10,0.006839822,6.625552E-10,7073.152,0.006,0,1.272524E-05,,
	07/24/2022 18:09:08.429,444882,5445.75,7.00,6.00,-0.001059975,2.49999,-0.00264993,0.001671307,0.001603285,0.005482333,0.004665175,5675.541,5445.092,0,95.93005,,
	07/25/2022 04:07:27.318,480781,4911.09,11.00,5.00,0.001059894,3.500006,0.00370964,0.001445714,2.82633E-09,0.004750141,7.067845E-09,4910.479,0.0096,0,0.0001954971,,
	07/25/2022 12:59:18.657,512692,4305.2,14.00,6.00,-0.001059956,2.49995,-0.00264984,0.001313434,0.0012674,0.004321191,0.003660049,4461.115,4304.676,0,96.49518,,
	07/25/2022 20:55:19.846,541253,3894.97,18.00,5.00,0.001060141,3.500029,0.00371052,0.001146608,1.442841E-09,0.00378121,3.606851E-09,3894.462,0.0049,0,0.0001258355,,
	07/26/2022 03:48:51.864,566065,3274.7,21.00,6.00,-0.001059941,2.499916,-0.00264976,0.001013638,0.0009640314,0.003350787,0.002752159,3442.851,3274.29,0,95.10613,,
	07/26/2022 09:40:04.860,587138,2811.54,25.00,5.00,0.001059871,3.5,0.00370955,0.0008276664,2.17895E-09,0.002742814,5.448009E-09,2811.182,0.0074,0,0.0002632642,,
	07/26/2022 14:27:36.069,604390,2215.77,28.00,6.00,-0.001059907,2.499872,-0.00264963,0.0006964933,0.0006523028,0.002308968,0.001848314,2365.435,2215.489,0,93.65529,,
	07/26/2022 18:21:36.896,618431,1850.22,32.00,5.00,0.001059825,3.50005,0.00370944,0.0005446521,1.972543E-09,0.001802838,4.930664E-09,1849.973,0.0067,0,0.0003621656,,
	07/26/2022 21:28:12.055,629626,1436.9,35.00,6.00,-0.001059901,2.499868,-0.00264961,0.0004503401,0.0004230051,0.00148943,0.001199406,1529.634,1436.726,0,93.93015,,
	07/27/2022 00:01:36.185,638830,1229.96,39.00,5.00,0.001059874,3.500015,0.00370957,0.0003620698,3.180212E-09,0.00119502,7.954091E-09,1229.811,0.0108,0,0.0008783423,,
	07/27/2022 02:09:51.786,646525,1013.2,42.00,6.00,-0.001059941,2.49999,-0.00264984,0.0003135827,0.0002982869,0.001033452,0.0008476894,1065.11,1013.083,0,95.12225,,
	07/27/2022 04:00:24.824,653158,900.9628,46.00,5.00,0.001059927,3.5,0.00370974,0.0002652221,3.17976E-09,0.0008724947,7.94766E-09,900.8418,0.0108,0,0.001198905,,
	07/27/2022 05:36:46.769,658940,774.7627,49.00,6.00,-0.001059918,2.499964,-0.00264976,0.0002376298,0.0002280821,0.0007808239,0.0006488721,807.1253,774.6713,0,95.98208,,
	07/27/2022 07:02:34.568,664088,707.3082,53.00,5.00,0.001059906,3.50001,0.00370968,0.0002082195,2.149585E-09,0.0006833153,5.374375E-09,707.2186,0.0073,0,0.001032365,,
	07/27/2022 08:19:21.801,668695,624.3124,56.00,6.00,-0.001059902,2.499998,-0.00264975,0.0001903285,0.0001837903,0.0006240617,0.0005229419,646.4519,624.2594,0,96.5648,,
	07/27/2022 09:29:06.552,672880,578.6884,60.00,5.00,0.001059936,3.500008,0.00370978,0.0001703599,3.385861E-09,0.0005580336,8.46499E-09,578.6201,0.0115,0,0.001987475,,
	07/27/2022 10:32:37.094,676691,520.2322,63.00,6.00,-0.001059938,2.499975,-0.00264982,0.0001579676,0.0001531548,0.0005171068,0.000435722,536.545,520.1826,0,96.95327,,
	07/27/2022 11:31:10.462,680204,488.7483,67.00,5.00,0.001059883,3.500006,0.0037096,0.0001438764,1.737212E-09,0.0004706076,4.342367E-09,488.6833,0.0059,0,0.001207434,,
	07/27/2022 12:25:09.380,683443,444.1681,70.00,6.00,-0.001059936,2.499958,-0.0026498,0.0001345079,0.0001307635,0.0004397262,0.0003719309,456.8701,444.1241,0,97.21624,,
	07/27/2022 13:15:22.227,686456,420.8347,74.00,5.00,0.001059878,3.500036,0.00370961,0.0001238993,3.00284E-09,0.0004047782,7.506308E-09,420.778,0.0102,0,0.002423613,,
	07/27/2022 14:02:19.027,689273,389.3707,77.00,6.00,-0.001060033,2.499895,-0.00264997,0.0001175046,0.0001146413,0.0003836815,0.0003260219,399.0397,389.341,0,97.5633,,
	07/27/2022 14:46:40.326,691934,373.4707,81.00,5.00,0.001060111,3.500057,0.00371045,0.0001099642,3.798795E-09,0.00035882,9.495675E-09,373.4189,0.0129,0,0.003454575,,
	07/27/2022 15:28:31.608,694445,348.3270,84.00,6.00,-0.001059989,2.499983,-0.00264995,0.0001049667,0.0001025508,0.0003423631,0.0002916167,356.4495,348.2918,0,97.69837,,
	07/27/2022 16:08:22.297,696836,336.4891,88.00,5.00,0.001059855,3.500013,0.00370951,9.907616E-05,3.150668E-09,0.00032296,7.875469E-09,336.4438,0.0096,0,0.003180047,,
	07/27/2022 16:46:15.028,699109,316.1370,91.00,6.00,-0.001059968,2.499977,-0.0026499,9.513211E-05,9.307444E-05,0.0003099774,0.0002646462,323.0506,316.1053,0,97.83703,,
	07/27/2022 17:22:31.425,701285,307.0032,95.00,5.00,0.001060185,3.500027,0.00371068,9.039551E-05,3.091569E-09,0.0002943951,7.727721E-09,306.9658,0.0105,0,0.003420047,,
	07/27/2022 17:57:11.919,703366,289.9698,98.00,6.00,-0.001059959,2.499954,-0.00264985,8.718098E-05,8.536821E-05,0.000283835,0.0002427003,296.051,289.9407,0,97.92069,,
	07/27/2022 18:30:31.161,705365,282.3043,102.00,5.00,0.001060131,3.500013,0.00371047,8.312258E-05,3.00316E-09,0.000270517,7.506205E-09,282.2681,0.0092,0,0.003612929,,
	07/27/2022 19:02:25.489,707279,267.0436,105.00,6.00,-0.001059977,2.499996,-0.00264994,8.022835E-05,7.861989E-05,0.0002610307,0.0002234702,272.4408,267.019,0,97.99514,,
	07/27/2022 19:33:06.674,709120,259.8363,109.00,5.00,0.001060111,3.500107,0.0037105,7.650809E-05,2.914778E-09,0.0002488601,7.285672E-09,259.8063,0.0099,0,0.003809764,,
	07/27/2022 20:02:29.014,710883,245.8024,112.00,6.00,-0.001059938,2.499998,-0.00264984,7.382136E-05,7.236763E-05,0.0002400836,0.000205653,250.7437,245.787,0,98.03075,,
	07/27/2022 20:30:43.156,712577,239.1550,116.00,5.00,0.001059906,3.500021,0.00370969,7.040127E-05,3.297872E-09,0.0002289237,8.2485E-09,239.1233,0.0112,0,0.004684392,,
	07/27/2022 20:57:48.690,714202,227.6025,119.00,6.00,-0.00105994,2.499973,-0.00264982,6.818625E-05,6.700618E-05,0.0002216829,0.0001903658,231.6051,227.5782,0,98.26934,,
	07/27/2022 21:24:03.547,715777,222.8359,123.00,5.00,0.001059882,3.500029,0.00370962,6.559684E-05,5.890862E-10,0.0002132235,1.472053E-09,222.8069,0.002,0,0.0008980405,,
	07/27/2022 21:49:24.548,717298,213.3530,126.00,6.00,-0.001059908,2.499973,-0.00264974,6.386427E-05,6.281277E-05,0.0002075585,0.0001784194,216.9237,213.3369,0,98.35355,,
	07/27/2022 22:14:04.641,718778,210.0379,130.00,5.00,0.00105986,3.500019,0.00370953,6.182974E-05,3.356337E-09,0.0002008975,8.390762E-09,210.0116,0.0114,0,0.005428354,,
	07/27/2022 22:38:02.597,720216,201.9399,133.00,6.00,-0.001059894,2.499964,-0.0026497,6.041872E-05,5.944985E-05,0.0001962894,0.0001688457,205.2208,201.9216,0,98.3964,,
	07/27/2022 23:01:25.226,721619,199.2307,137.00,5.00,0.001059929,3.500006,0.00370976,5.865299E-05,2.59062E-09,0.0001905239,6.476089E-09,199.2102,0.0088,0,0.00441686,,
	07/27/2022 23:24:11.778,722985,192.1828,140.00,6.00,-0.001059936,2.499977,-0.00264982,5.752688E-05,5.657992E-05,0.0001868309,0.0001606892,195.3879,192.1728,0,98.35389,,
	07/27/2022 23:46:29.933,724324,190.4525,144.00,5.00,0.001059906,3.500021,0.00370969,5.606559E-05,3.444575E-09,0.000182056,8.611702E-09,190.4283,0.0117,0,0.006143832,,
	07/28/2022 00:08:16.191,725630,183.9030,147.00,6.00,-0.00105989,2.499985,-0.00264971,5.499003E-05,5.414198E-05,0.0001785468,0.0001537461,186.7745,183.8922,0,98.45782,,
	07/28/2022 00:29:38.079,726912,182.4931,151.00,5.00,0.001059915,3.500013,0.00370972,5.372251E-05,4.004235E-09,0.0001744116,1.000927E-08,182.4716,0.0136,0,0.007453551,,
	07/28/2022 00:50:32.602,728166,176.7221,154.00,6.00,-0.001059915,2.49999,-0.00264978,5.283485E-05,5.202843E-05,0.0001715071,0.000147747,179.461,176.7093,0,98.47369,,
	07/28/2022 01:11:05.660,729399,175.7644,158.00,5.00,0.001059948,3.50001,0.00370983,5.174158E-05,2.237477E-09,0.0001679406,5.592955E-09,175.7413,0.0076,0,0.00432433,,
	07/28/2022 01:31:14.538,730608,170.4659,161.00,6.00,-0.001059949,2.499929,-0.0026498,5.095592E-05,5.018516E-05,0.0001653751,0.0001425141,173.0738,170.453,0,98.48738,,
	07/28/2022 01:51:04.538,731798,169.5956,165.00,5.00,0.001059943,3.500015,0.00370982,4.992525E-05,2.944049E-09,0.0001620152,7.359731E-09,169.5734,0.01,0,0.005896915,,
	07/28/2022 02:10:32.447,732966,164.7955,168.00,6.00,-0.001059975,2.499981,-0.00264992,4.922258E-05,4.851885E-05,0.0001597215,0.0001377736,167.1897,164.788,0,98.57031,,
	07/28/2022 02:29:44.081,734118,164.3220,172.00,5.00,0.001059907,3.500021,0.0037097,4.837129E-05,2.856038E-09,0.0001569484,7.138289E-09,164.2988,0.009699999,0,0.005904408,,
	07/28/2022 02:48:36.564,735250,159.8390,175.00,6.00,-0.001059921,2.499952,-0.00264975,4.775242E-05,4.705762E-05,0.0001549264,0.0001336258,162.1934,159.829,0,98.54499,,
	07/28/2022 03:07:14.049,736368,159.5062,179.00,5.00,0.001059903,3.500055,0.00370972,4.695564E-05,1.501865E-09,0.0001523302,3.755928E-09,159.4869,0.0051,0,0.003198477,,
	07/28/2022 03:25:33.778,737467,155.2924,182.00,6.00,-0.001059922,2.5,-0.002649805,4.637217E-05,4.571877E-05,0.0001504305,0.0001298289,157.5047,155.2802,0,98.59096,,
	07/28/2022 03:43:40.563,738554,155.1273,186.00,5.00,0.001059896,3.500048,0.00370969,4.566595E-05,2.385135E-09,0.0001481291,5.962312E-09,155.1094,0.0081,0,0.005223004,,
	07/28/2022 04:01:31.799,739625,151.3836,189.00,6.00,-0.001059946,2.499968,-0.00264983,4.519426E-05,4.456784E-05,0.0001465897,0.0001265631,153.5005,151.3725,0,98.61395,,
	07/28/2022 04:19:11.811,740685,151.3668,193.00,5.00,0.001059908,3.500038,0.00370972,4.455775E-05,3.768297E-09,0.0001445172,9.414231E-09,151.3435,0.0128,0,0.008457108,,
	07/28/2022 04:36:36.811,741730,147.7323,196.00,6.00,-0.001059932,2.49999,-0.00264982,4.41095E-05,4.349233E-05,0.0001430584,0.0001235126,149.8183,147.7181,0,98.60084,,
	07/28/2022 04:53:51.484,742765,147.8109,200.00,5.00,0.001059943,3.500021,0.00370982,4.351288E-05,1.854736E-09,0.0001411131,4.636301E-09,147.7912,0.0063,0,0.0042625,,
	07/28/2022 04:56:17.330,742911,145.8217,200.00,6.00,-0.001059878,2.5,-0.002649695,4.351382E-05,4.292891E-05,0.0001411164,0.0001219109,147.7944,145.8077,0,98.65581,,