File: Cell-test-data/SiMP-LFP-SF3/JB1_SiMP-LFP-SF3_03C_Channel_85_StatisticByCycle.CSV
Date_Time                    ,Test Time (s),Step Time (s),Cycle Index,Step Index,Current (A),Voltage (V),Power (W),Charge Capacity (Ah),Discharge Capacity (Ah),Charge Energy (Wh),Discharge Energy (Wh),Charge Time (s),Discharge Time (s),V_Max_On_Cycle (V),Coulombic Efficiency (%),mAh/g
	07/21/2022 15:44:59.050,177033,59102,1,3,-0.0001590069,2.499996,-0.000397517,0.003300268,0.002610089,0.01089125,0.007747169,74721.15,59094.72,0,79.08719,,
	07/24/2022 11:51:17.510,422211,5889.32,5,6,-0.001059945,2.499992,-0.00264985,0.001824471,0.001733777,0.005982729,0.005045315,6196.887,5888.589,0,95.02902,,
	07/24/2022 23:59:23.174,465897,5062.76,9,6,-0.001059936,2.499975,-0.00264981,0.001546777,0.001490431,0.005078639,0.004328256,5253.746,5062.094,0,96.35726,,
	07/25/2022 10:33:11.699,503925,4448.9,13,6,-0.001059979,2.499922,-0.00264986,0.001356851,0.001309734,0.004461692,0.00378817,4608.57,4448.373,0,96.52753,,
	07/25/2022 19:50:24.847,537358,3887.88,17,6,-0.001059979,2.499931,-0.00264987,0.001192042,0.001144567,0.003926983,0.003291002,4048.575,3887.379,0,96.01729,,
	07/26/2022 03:48:51.864,566065,3274.698,21,6,-0.001059941,2.499916,-0.00264976,0.001013638,0.0009640314,0.003350787,0.002752159,3442.851,3274.29,0,95.10613,,
	07/26/2022 10:24:13.219,589787,2648.34,25,6,-0.001059921,2.499962,-0.00264976,0.0008276687,0.0007796355,0.002742822,0.002213122,2811.189,2647.993,0,94.19657,,
	07/26/2022 15:39:33.391,608707,2086.51,29,6,-0.001059973,2.499989,-0.00264992,0.0006566852,0.00061425,0.00217625,0.001740628,2230.487,2086.24,0,93.53797,,
	07/26/2022 19:46:17.281,623511,1619.58,33,6,-0.001059979,2.499981,-0.00264993,0.0005099544,0.0004768082,0.001687678,0.00135126,1732.096,1619.396,0,93.50017,,
	07/26/2022 22:59:08.912,635083,1287.69,37,6,-0.001059963,2.499969,-0.00264987,0.0004020915,0.0003790914,0.001328499,0.001075686,1365.722,1287.542,0,94.27991,,
	07/27/2022 01:35:13.295,644446.917,1058.64,41,6,-0.001059927,2.499926,-0.00264974,0.0003282913,0.0003116576,0.001082423,0.0008854909,1115.065,1058.527,0,94.93327,,
	07/27/2022 03:45:23.828,652257,895.5501,45,6,-0.001059912,2.499954,-0.00264973,0.0002760963,0.0002636497,0.000908666,0.0007497279,937.7785,895.4486,0,95.49197,,
	07/27/2022 05:36:46.769,658940,774.7627,49,6,-0.001059918,2.499964,-0.00264976,0.0002376298,0.0002280821,0.0007808239,0.0006488721,807.1253,774.6713,0,95.98208,,
	07/27/2022 07:13:55.881,664770,681.2892,53,6,-0.001059876,2.499958,-0.00264965,0.000208222,0.0002005637,0.0006833238,0.0005706539,707.2268,681.2126,0,96.32205,,
	07/27/2022 08:39:57.155,669931,607.088,57,6,-0.001059908,2.499992,-0.00264976,0.0001849402,0.0001787223,0.0006062394,0.0005084979,628.1353,607.0253,0,96.63789,,
	07/27/2022 09:56:57.311,674551,546.3028,61,6,-0.001059896,2.499878,-0.00264961,0.0001660574,0.0001608222,0.0005438339,0.0004575585,563.9949,546.2445,0,96.84734,,
	07/27/2022 11:06:36.664,678730,496.4499,65,6,-0.001059954,2.499939,-0.00264982,0.000150574,0.0001461529,0.0004927114,0.0004157621,511.4448,496.3957,0,97.06384,,
	07/27/2022 12:10:08.235,682542,453.9915,69,6,-0.001059888,2.499985,-0.0026497,0.0001375504,0.0001336516,0.0004497468,0.0003801614,467.2021,453.9428,0,97.1655,,
	07/27/2022 13:08:21.360,686035,417.7356,73,6,-0.00105997,2.499905,-0.00264982,0.0001262999,0.0001229871,0.0004126877,0.0003497604,428.9444,417.6928,0,97.37698,,
	07/27/2022 14:02:19.027,689273,389.3707,77,6,-0.001060033,2.499895,-0.00264997,0.0001175046,0.0001146413,0.0003836815,0.0003260219,399.0397,389.341,0,97.5633,,
	07/27/2022 14:52:44.844,692298,364.4941,81,6,-0.001060024,2.499983,-0.00265004,0.0001099669,0.0001073138,0.0003588295,0.0003051786,373.4281,364.4613,0,97.58739,,
	07/27/2022 15:40:06.299,695140,343.358,85,6,-0.001059957,2.499979,-0.00264987,0.0001034221,0.000101086,0.000337277,0.0002874446,351.2356,343.3243,0,97.74123,,
	07/27/2022 16:24:47.990,697822,324.5759,89,6,-0.001059954,2.499994,-0.00264988,9.77348E-05,9.55593E-05,0.0003185472,0.000271722,331.9031,324.5478,0,97.77409,,
	07/27/2022 17:07:09.084,700363,308.2695,93,6,-0.001059991,2.499956,-0.00264993,9.267693E-05,9.075612E-05,0.0003018976,0.0002580284,314.7156,308.2368,0,97.92741,,
	07/27/2022 17:47:25.807,702779,293.5286,97,6,-0.001060037,2.499922,-0.00265001,8.82353E-05,8.641839E-05,0.0002873025,0.0002456843,299.6326,293.4967,0,97.94084,,
	07/27/2022 18:25:48.824,705082,279.9009,101,6,-0.001059957,2.499977,-0.00264987,8.408583E-05,8.240284E-05,0.0002736721,0.0002342461,285.5662,279.8727,0,97.99849,,
	07/27/2022 19:02:25.489,707279,267.0436,105,6,-0.001059977,2.499996,-0.00264994,8.022835E-05,7.861989E-05,0.0002610307,0.0002234702,272.4408,267.019,0,97.99514,,
	07/27/2022 19:37:21.469,709375,254.77,109,6,-0.001059971,2.499979,-0.00264991,7.650942E-05,7.500804E-05,0.0002488648,0.0002131843,259.8108,254.7495,0,98.03765,,
	07/27/2022 20:10:39.709,711373,242.9368,113,6,-0.001059887,2.499998,-0.00264972,7.292043E-05,7.152103E-05,0.0002371452,0.0002032411,247.6807,242.9148,0,98.08092,,
	07/27/2022 20:42:26.068,713280,231.8251,117,6,-0.001059973,2.499979,-0.00264991,6.959336E-05,6.824956E-05,0.0002262884,0.0001939148,236.3826,231.7997,0,98.06906,,
	07/27/2022 21:12:54.630,715108,223.2974,121,6,-0.001059932,2.5,-0.00264983,6.695137E-05,6.573926E-05,0.0002176432,0.0001867657,227.41,223.2774,0,98.18957,,
	07/27/2022 21:42:14.192,716868,215.0378,125,6,-0.001059941,2.499992,-0.00264984,6.441532E-05,6.330488E-05,0.0002093641,0.0001798211,218.7949,215.0114,0,98.27612,,
	07/27/2022 22:10:34.572,718568,208.0601,129,6,-0.001059965,2.499966,-0.00264988,6.229991E-05,6.12534E-05,0.0002024412,0.0001739814,211.6048,208.0436,0,98.3202,,
	07/27/2022 22:38:02.597,720216,201.9399,133,6,-0.001059894,2.499964,-0.0026497,6.041872E-05,5.944985E-05,0.0001962894,0.0001688457,205.2208,201.9216,0,98.3964,,
	07/27/2022 23:04:41.234,721815,195.9841,137,6,-0.001059949,2.499985,-0.00264986,5.865481E-05,5.769733E-05,0.0001905303,0.0001638632,199.2164,195.9714,0,98.36761,,
	07/27/2022 23:30:36.623,723370,190.8279,141,6,-0.001059952,2.499998,-0.00264988,5.709985E-05,5.618037E-05,0.0001854435,0.0001595493,193.9449,190.8153,0,98.3897,,
	07/27/2022 23:55:52.458,724886,186.0588,145,6,-0.001059941,2.499985,-0.00264984,5.566188E-05,5.477571E-05,0.0001807435,0.0001555578,189.0566,186.0453,0,98.40795,,
	07/28/2022 00:20:31.334,726365,181.7069,149,6,-0.001059962,2.499977,-0.00264988,5.4362E-05,5.349633E-05,0.0001764935,0.0001519207,184.6462,181.6965,0,98.40758,,
	07/28/2022 00:44:36.346,727810,177.6909,153,6,-0.001059912,2.499987,-0.00264977,5.312141E-05,5.231379E-05,0.0001724467,0.0001485598,180.4301,177.6821,0,98.47968,,
	07/28/2022 01:08:09.865,729223,173.9955,157,6,-0.001059918,2.499979,-0.00264977,5.199156E-05,5.122389E-05,0.0001687609,0.0001454621,176.591,173.978,0,98.52348,,
	07/28/2022 01:31:14.538,730608,170.4659,161,6,-0.001059949,2.499929,-0.0026498,5.095592E-05,5.018516E-05,0.0001653751,0.0001425141,173.0738,170.453,0,98.48738,,
	07/28/2022 01:53:51.643,731965,167.0806,165,6,-0.001059885,2.499996,-0.00264971,4.992801E-05,4.918897E-05,0.0001620249,0.0001396891,169.5828,167.0717,0,98.5198,,
	07/28/2022 02:16:03.059,733297,164.0218,169,6,-0.001059952,2.499975,-0.00264985,4.902565E-05,4.828937E-05,0.0001590809,0.0001371302,166.5212,164.0092,0,98.49817,,
	07/28/2022 02:37:50.967,734605,161.2278,173,6,-0.001059922,2.499985,-0.00264979,4.817129E-05,4.746761E-05,0.0001562927,0.0001347942,163.6167,161.2191,0,98.53922,,
	07/28/2022 02:59:16.515,735890,158.4317,177,6,-0.001059918,2.49999,-0.00264978,4.731792E-05,4.664036E-05,0.0001535086,0.0001324436,160.7171,158.4125,0,98.56808,,
	07/28/2022 03:20:20.917,737155,155.9077,181,6,-0.001059931,2.49999,-0.00264982,4.65817E-05,4.589989E-05,0.000151112,0.000130344,158.2155,155.8986,0,98.53633,,
	07/28/2022 03:41:05.405,738399,153.5225,185,6,-0.001059956,2.499937,-0.00264982,4.585865E-05,4.519878E-05,0.0001487585,0.0001283564,155.7636,153.5133,0,98.56107,,
	07/28/2022 04:01:31.799,739625,151.3836,189,6,-0.001059946,2.499968,-0.00264983,4.519426E-05,4.456784E-05,0.0001465897,0.0001265631,153.5005,151.3725,0,98.61395,,
	07/28/2022 04:21:41.046,740835,149.21,193,6,-0.001059952,2.499981,-0.00264986,4.455961E-05,4.392938E-05,0.0001445237,0.0001247548,151.3498,149.202,0,98.58566,,
	07/28/2022 04:41:33.386,742027,147.2091,197,6,-0.001059913,2.499987,-0.00264977,4.395437E-05,4.333901E-05,0.0001425542,0.0001230786,149.2922,147.1995,0,98.6,,
	07/28/2022 04:56:17.330,742911,145.8217,200,6,-0.001059878,2.5,-0.002649695,4.351382E-05,4.292891E-05,0.0001411164,0.0001219109,147.7944,145.8077,0,98.65581,,