File: Cell-test-data/SiMP-LFP-PFOF3/JB3_SiMP-LFP-PFOF3_03C_Channel_87_StatisticByStep.CSV
Date_Time                    ,Test Time (s),Step Time (s),Cycle Index,Step Index,Current (A),Voltage (V),Power (W),Charge Capacity (Ah),Discharge Capacity (Ah),Charge Energy (Wh),Discharge Energy (Wh),Charge Time (s),Discharge Time (s),V_Max_On_Cycle (V),Coulombic Efficiency (%),mAh/g
	07/20/2022 02:34:55.182,43200,43200,1.00,1.00,0,0.2597151,0,0,0,0,0,0,0,0,0,,
	07/24/2022 13:47:31.955,429157,8190.24,4.00,5.00,0.001060077,3.500031,0.0037103,0.002411471,2.340644E-10,0.007866333,5.851729E-10,8189.208,0.0053,0,9.70629E-06,,
	07/25/2022 04:31:46.615,482211,7395.34,7.00,6.00,-0.001060069,2.499984,-0.00265016,0.002209467,0.002177438,0.00718316,0.006295095,7503.247,7394.38,0,98.55037,,
	07/25/2022 18:41:11.315,533176,7203.57,11.00,5.00,0.001060141,3.500014,0.00371051,0.002121005,2.856572E-09,0.006891132,7.14209E-09,7202.681,0.009699999,0,0.0001346801,,
	07/26/2022 08:17:13.630,582138,6846.06,14.00,6.00,-0.001060055,2.499993,-0.00265013,0.002046572,0.002015722,0.006651401,0.005823568,6951.12,6845.215,0,98.49261,,
	07/26/2022 21:24:36.166,629381,6663.34,18.00,5.00,0.00105983,3.500035,0.00370944,0.001961928,3.387193E-09,0.006377112,8.468877E-09,6662.479,0.009,0,0.0001726461,,
	07/27/2022 10:01:29.978,674795,6363.73,21.00,6.00,-0.001060105,2.499928,-0.00265019,0.001898697,0.001873685,0.006172771,0.005415999,6448.737,6362.909,0,98.68267,,
	07/27/2022 22:13:10.818,718696,6184.59,25.00,5.00,0.001060093,3.500075,0.00371041,0.001820922,2.384869E-09,0.005921861,5.963038E-09,6183.746,0.0081,0,0.0001309704,,
	07/28/2022 09:55:57.666,760862,5907.23,28.00,6.00,-0.001060045,2.49998,-0.00265009,0.001763519,0.001739122,0.005736726,0.005030376,5989.956,5906.083,0,98.61656,,
	07/28/2022 21:15:40.472,801645,5750.04,32.00,5.00,0.001060151,3.500022,0.00371055,0.00169303,3.797794E-09,0.005508703,9.493285E-09,5749.232,0.0129,0,0.0002243193,,
	07/29/2022 08:09:09.036,840854,5488.05,35.00,6.00,-0.001060009,2.499866,-0.00264988,0.001640227,0.001615829,0.005338673,0.004678343,5570.955,5487.325,0,98.5125,,
	07/29/2022 18:41:35.320,878800,5382.36,39.00,5.00,0.001060115,3.500047,0.00371045,0.001584702,5.300665E-10,0.005156396,1.325196E-09,5381.632,0.0009,0,3.344897E-05,,
	07/30/2022 04:49:25.931,915271,5101.9,42.00,6.00,-0.001060094,2.499965,-0.0026502,0.001522308,0.001502199,0.004957909,0.004353183,5169.527,5101.229,0,98.67908,,
	07/30/2022 14:35:11.848,950417,4974.78,46.00,5.00,0.00106006,3.50001,0.00371022,0.001464702,2.767752E-09,0.004771604,6.921189E-09,4974.088,0.0094,0,0.0001889635,,
	07/31/2022 00:01:06.714,984372,4745.74,49.00,6.00,-0.001060151,2.499986,-0.00265036,0.001415491,0.001397326,0.00461241,0.004052892,4806.771,4745.11,0,98.71669,,
	07/31/2022 09:05:56.679,1.01706e+06,4615.21,53.00,5.00,0.00105984,3.500047,0.00370949,0.00135862,2.591267E-09,0.004428353,6.477702E-09,4614.582,0.007999999,0,0.0001907279,,
	07/31/2022 17:50:48.088,1.04855e+06,4416.12,56.00,6.00,-0.001059859,2.499932,-0.00264958,0.001318033,0.001300119,0.004297188,0.003773816,4475.853,4415.537,0,98.64088,,
	08/01/2022 02:19:25.025,1.07907e+06,4302.93,60.00,5.00,0.001060116,3.500018,0.00371043,0.001266949,1.53139E-09,0.004131522,3.828529E-09,4302.38,0.0052,0,0.0001208722,,
	08/01/2022 10:29:36.059,1.10848e+06,4128.68,63.00,6.00,-0.001059912,2.499991,-0.00264977,0.001231568,0.001215508,0.00401686,0.003529938,4182.22,4128.12,0,98.69598,,
	08/01/2022 18:26:50.151,1.13711e+06,4062.96,67.00,5.00,0.001059954,3.500066,0.00370991,0.001196183,3.827799E-09,0.003900531,9.569144E-09,4062.397,0.013,0,0.0003200012,,
	08/02/2022 02:11:31.751,1.165e+06,3922.48,70.00,6.00,-0.001059859,2.49993,-0.00264957,0.001169299,0.001154679,0.003812043,0.003359724,3971.126,3921.938,0,98.74963,,
	08/02/2022 09:43:03.141,1.19209e+06,3806.42,74.00,5.00,0.001060127,3.500007,0.00371045,0.001120753,1.972896E-09,0.003655527,4.932057E-09,3805.923,0.0067,0,0.0001760331,,
	08/02/2022 16:55:15.969,1.21802e+06,3639.57,77.00,6.00,-0.001060052,2.499961,-0.00265009,0.001085396,0.001071586,0.003542555,0.003114163,3686.652,3639.072,0,98.72766,,
	08/02/2022 23:55:38.186,1.24324e+06,3572.08,81.00,5.00,0.001060123,3.500007,0.00371044,0.001051749,2.002503E-09,0.003432794,5.006207E-09,3571.573,0.0068,0,0.0001903974,,
	08/03/2022 06:43:43.511,1.26773e+06,3443.58,84.00,6.00,-0.00106008,2.499852,-0.00265004,0.001025648,0.001013896,0.00334834,0.002946929,3483.297,3443.137,0,98.85424,,
	08/03/2022 13:22:09.520,1.29163e+06,3398.79,88.00,5.00,0.001060053,3.500009,0.0037102,0.001000663,2.532579E-09,0.003266414,6.331609E-09,3398.304,0.008599999,0,0.0002530901,,
	08/03/2022 19:50:31.617,1.31494e+06,3278.82,91.00,6.00,-0.001060092,2.499955,-0.00265018,0.0009750944,0.0009653468,0.003183867,0.002806602,3311.932,3278.254,0,99.00034,,
	08/04/2022 02:10:27.251,1.33773e+06,3243.34,95.00,5.00,0.001060129,3.500112,0.00371057,0.0009549,2.267303E-09,0.003116895,5.66803E-09,3242.767,0.0077,0,0.0002374388,,
	08/04/2022 08:20:35.240,1.35994e+06,3128.33,98.00,6.00,-0.001060122,2.499984,-0.00265029,0.0009293221,0.0009210428,0.003035077,0.002677405,3156.308,3127.757,0,99.1091,,
	08/04/2022 14:23:15.335,1.3817e+06,3092.88,102.00,5.00,0.001060121,3.500056,0.00371048,0.0009106364,1.178001E-09,0.002973554,2.944767E-09,3092.378,0.004,0,0.0001293601,,
	08/04/2022 20:18:43.348,1.40303e+06,3007.93,105.00,6.00,-0.001059858,2.49998,-0.00264962,0.0008952907,0.0008855909,0.00292349,0.002575675,3040.299,3007.444,0,98.91657,,
	08/05/2022 02:06:04.666,1.42387e+06,2956.07,109.00,5.00,0.001059892,3.500007,0.00370963,0.0008702122,2.503057E-09,0.00284268,6.257427E-09,2955.514,0.0085,0,0.0002876376,,
	08/05/2022 07:45:12.743,1.44422e+06,2874.07,112.00,6.00,-0.001059806,2.499988,-0.0026495,0.000854134,0.0008461447,0.002790353,0.002459558,2900.503,2873.684,0,99.06464,,
	08/05/2022 13:18:35.325,1.46422e+06,2855.67,116.00,5.00,0.001060021,3.500045,0.00371012,0.0008407478,1.736982E-09,0.002745993,4.342564E-09,2855.292,0.0059,0,0.0002065997,,
	08/05/2022 18:48:26.249,1.48401e+06,2803.1,119.00,6.00,-0.001059937,2.499999,-0.00264984,0.0008327155,0.0008252019,0.002719008,0.002401332,2828.152,2802.756,0,99.09769,,
	08/06/2022 00:12:41.497,1.50347e+06,2757.6,123.00,5.00,0.001060056,3.500016,0.00371021,0.0008119,1.472173E-09,0.002651535,3.680703E-09,2757.242,0.005,0,0.0001813244,,
	08/06/2022 05:29:18.200,1.52246e+06,2680.68,126.00,6.00,-0.001060119,2.499923,-0.00265022,0.0007969608,0.0007892902,0.002603512,0.002294436,2706.396,2680.365,0,99.03751,,
	08/06/2022 10:39:23.565,1.54107e+06,2643.73,130.00,5.00,0.001060118,3.500108,0.00371053,0.0007784178,1.619519E-09,0.002543617,4.048435E-09,2643.387,0.0055,0,0.0002080527,,
	08/06/2022 15:45:18.565,1.55942e+06,2611.39,133.00,6.00,-0.001059917,2.499967,-0.00264976,0.0007742805,0.0007687258,0.002529203,0.002235572,2629.572,2611.045,0,99.2826,,
	08/06/2022 20:48:48.215,1.57763e+06,2587.5,137.00,5.00,0.001060037,3.500014,0.00371014,0.0007618039,3.23918E-09,0.002488098,8.09975E-09,2587.167,0.011,0,0.0004251986,,
	08/07/2022 01:45:46.687,1.59545e+06,2516.86,140.00,6.00,-0.001060147,2.499978,-0.00265034,0.0007466323,0.0007409169,0.002439304,0.002153382,2535.572,2516.558,0,99.2345,,
	08/07/2022 06:37:09.690,1.61293e+06,2485.61,144.00,5.00,0.001060067,3.50003,0.00371027,0.0007318284,2.709452E-09,0.002391428,6.774651E-09,2485.279,0.0084,0,0.0003702304,,
	08/07/2022 11:23:23.583,1.63011e+06,2430.58,147.00,6.00,-0.001059934,2.499991,-0.00264983,0.0007208213,0.0007154959,0.002355818,0.002078315,2447.889,2430.244,0,99.26121,,
	08/07/2022 16:06:50.213,1.64712e+06,2430.39,151.00,5.00,0.001060067,3.500001,0.00371024,0.000715562,3.003396E-09,0.002337723,7.508744E-09,2430.071,0.0093,0,0.0004197255,,
	08/07/2022 20:47:08.873,1.66393e+06,2379.67,154.00,6.00,-0.001059894,2.499965,-0.0026497,0.000706179,0.0007005267,0.002307253,0.002035996,2398.205,2379.406,0,99.1996,,
	08/08/2022 01:23:00.044,1.68048e+06,2350.78,158.00,5.00,0.001060151,3.500068,0.0037106,0.000692163,2.855954E-09,0.002261908,7.139555E-09,2350.463,0.009699999,0,0.0004126129,,
	08/08/2022 05:53:55.565,1.69674e+06,2301.27,161.00,6.00,-0.001060135,2.499978,-0.00265031,0.0006821866,0.0006775451,0.002229686,0.001967552,2316.984,2300.872,0,99.3196,,
	08/08/2022 10:20:53.806,1.71276e+06,2281.06,165.00,5.00,0.001060111,3.500001,0.00371039,0.0006715946,2.826761E-09,0.002195229,7.066141E-09,2280.639,0.0096,0,0.0004209029,,
	08/08/2022 14:45:56.119,1.72866e+06,2261.95,168.00,6.00,-0.001059909,2.499997,-0.00264977,0.0006710115,0.000665821,0.002192447,0.001934756,2278.746,2261.541,0,99.22646,,
	08/08/2022 19:08:46.228,1.74443e+06,2248.69,172.00,5.00,0.001060084,3.500007,0.0037103,0.0006620697,1.590333E-09,0.002163064,3.97582E-09,2248.358,0.0054,0,0.0002402063,,
	08/08/2022 23:28:21.042,1.76001e+06,2205.1,175.00,6.00,-0.001059838,2.499963,-0.00264956,0.0006541222,0.0006491853,0.002137349,0.001885931,2221.354,2204.701,0,99.24525,,
	08/09/2022 03:43:43.444,1.77533e+06,2178.19,179.00,5.00,0.001060107,3.500009,0.00371038,0.0006413048,2.326602E-09,0.002096032,5.816921E-09,2177.752,0.0079,0,0.0003627919,,
	08/09/2022 07:55:03.649,1.79041e+06,2135.17,182.00,6.00,-0.001060069,2.499986,-0.00265016,0.0006335886,0.0006286422,0.002071059,0.001824719,2151.966,2134.791,0,99.2193,,
	08/09/2022 12:03:27.660,1.80531e+06,2132.8,186.00,5.00,0.001060134,3.500041,0.00371051,0.0006279299,2.384867E-09,0.002052344,5.961901E-09,2132.356,0.0081,0,0.0003797982,,
	08/09/2022 16:10:59.513,1.82016e+06,2109.23,189.00,6.00,-0.001059809,2.499963,-0.00264948,0.000624544,0.0006210146,0.0020408,0.001803682,2120.87,2108.922,0,99.43489,,
	08/09/2022 20:16:16.048,1.83488e+06,2095.5,193.00,5.00,0.00106009,3.500016,0.00371033,0.0006169297,2.50324E-09,0.002015971,6.258644E-09,2095.068,0.0072,0,0.0004057578,,
	08/10/2022 00:18:09.230,1.84939e+06,2055.01,196.00,6.00,-0.001059866,2.499997,-0.00264966,0.0006096333,0.0006049254,0.001992295,0.001756226,2070.357,2054.696,0,99.22775,,
	08/10/2022 04:16:38.734,1.8637e+06,2035.05,200.00,5.00,0.001060048,3.500007,0.00371018,0.0005991271,2.119783E-09,0.001958411,5.29944E-09,2034.682,0.0072,0,0.0003538119,,
	08/10/2022 04:50:20.183,1.86573e+06,2021.43,200.00,6.00,-0.001059848,2.499978,-0.0026496,0.000599129,0.0005950733,0.001958418,0.001726746,2034.689,2021.073,0,99.32308,,