File: Cell-test-data/SiMP-LFP-PFOF3/JB3_SiMP-LFP-PFOF3_03C_Channel_87_StatisticByCycle.CSV
Date_Time                    ,Test Time (s),Step Time (s),Cycle Index,Step Index,Current (A),Voltage (V),Power (W),Charge Capacity (Ah),Discharge Capacity (Ah),Charge Energy (Wh),Discharge Energy (Wh),Charge Time (s),Discharge Time (s),V_Max_On_Cycle (V),Coulombic Efficiency (%),mAh/g
	07/21/2022 16:24:43.016,179388,61900,1,3,-0.0001590118,2.499978,-0.000397526,0.003280682,0.002733512,0.01086174,0.008117339,74278,61892.22,0,83.32146,,
	07/24/2022 20:12:10.245,452235,7595.05,5,6,-0.001060073,2.49998,-0.00265016,0.0022726,0.002236188,0.007390921,0.006473386,7717.732,7594.134,0,98.3978,,
	07/25/2022 12:40:18.141,511523,7236,9,6,-0.001060092,2.499969,-0.0026502,0.002161124,0.00213047,0.007024188,0.006156409,7340.104,7235.047,0,98.58155,,
	07/26/2022 04:27:15.480,568340,6927.25,13,6,-0.001060139,2.499972,-0.00265032,0.002069396,0.002039624,0.006725224,0.005892542,7028.477,6926.37,0,98.5613,,
	07/26/2022 19:33:32.797,622718,6653.58,17,6,-0.001060165,2.499953,-0.00265036,0.00198855,0.001959043,0.006461408,0.005663302,6753.006,6652.71,0,98.51616,,
	07/27/2022 10:01:29.978,674795,6363.73,21,6,-0.001060105,2.499928,-0.00265019,0.001898697,0.001873685,0.006172771,0.005415999,6448.737,6362.909,0,98.68267,,
	07/27/2022 23:54:49.280,724794.099,6098.437,25,6,-0.001060066,2.499932,-0.00265009,0.001820925,0.001795611,0.00592187,0.005192814,6183.755,6097.724,0,98.60981,,
	07/28/2022 13:12:16.066,772641,5849.29,29,6,-0.001060133,2.499991,-0.00265032,0.001745304,0.001722165,0.005678214,0.004981693,5928.076,5848.326,0,98.67426,,
	07/29/2022 01:58:27.285,818612,5609.798,33,6,-0.001060069,2.499984,-0.00265016,0.001674517,0.001651676,0.005449292,0.004781019,5687.299,5609.018,0,98.63599,,
	07/29/2022 14:12:06.209,862631,5382.74,37,6,-0.001059848,2.499953,-0.00264957,0.001605072,0.001584768,0.005225257,0.004590355,5451.163,5381.993,0,98.73497,,
	07/30/2022 01:58:13.807,904999,5154.47,41,6,-0.001060156,2.499991,-0.00265038,0.001539176,0.001517652,0.005011983,0.004397723,5226.776,5153.747,0,98.60157,,
	07/30/2022 13:12:17.032,945442,4944.18,45,6,-0.001060159,2.499991,-0.00265039,0.001474511,0.001455761,0.004803427,0.004219943,5008.249,4943.542,0,98.72842,,
	07/31/2022 00:01:06.714,984372,4745.74,49,6,-0.001060151,2.499986,-0.00265036,0.001415491,0.001397326,0.00461241,0.004052892,4806.771,4745.11,0,98.71669,,
	07/31/2022 10:21:45.234,1.02161e+06,4548.53,53,6,-0.001060083,2.499955,-0.00265016,0.001358622,0.0013392,0.004428361,0.003885735,4614.59,4547.906,0,98.57044,,
	07/31/2022 20:17:53.956,1.05738e+06,4386.6,57,6,-0.001059866,2.499995,-0.00264966,0.001307056,0.001291458,0.004261164,0.003749832,4438.642,4386.043,0,98.80663,,
	08/01/2022 05:51:18.404,1.09178e+06,4204.21,61,6,-0.001060101,2.49994,-0.00265019,0.001254949,0.001237894,0.004092709,0.003594303,4261.639,4203.673,0,98.64098,,
	08/01/2022 15:03:21.940,1.12491e+06,4068.91,65,6,-0.001059872,2.499927,-0.0026496,0.001211915,0.001197816,0.003952802,0.003480571,4115.711,4068.42,0,98.83668,,
	08/01/2022 23:59:57.596,1.1571e+06,3954.23,69,6,-0.001059873,2.499993,-0.00264968,0.001179366,0.001164031,0.003845036,0.003386304,4005.4,3953.723,0,98.69968,,
	08/02/2022 08:39:36.684,1.18828e+06,3819.8,73,6,-0.001060094,2.499965,-0.0026502,0.001139842,0.001124526,0.003716052,0.003272462,3871.14,3819.306,0,98.65629,,
	08/02/2022 16:55:15.969,1.21802e+06,3639.574,77,6,-0.001060052,2.499961,-0.00265009,0.001085396,0.001071586,0.003542555,0.003114163,3686.652,3639.072,0,98.72766,,
	08/03/2022 00:54:29.964,1.24677e+06,3531.75,81,6,-0.001060119,2.499951,-0.00265025,0.00105175,0.001039882,0.003432798,0.00302287,3571.577,3531.276,0,98.87155,,
	08/03/2022 08:38:26.369,1.27461e+06,3424.56,85,6,-0.001060073,2.499991,-0.00265017,0.001018094,0.001008293,0.003323655,0.002930687,3457.774,3424.105,0,99.03722,,
	08/03/2022 16:10:01.719,1.30171e+06,3334.78,89,6,-0.001060126,2.499907,-0.00265022,0.0009935596,0.0009818494,0.003243176,0.002855542,3374.124,3334.361,0,98.82139,,
	08/03/2022 23:28:07.448,1.32799e+06,3241.963,93,6,-0.001060111,2.499988,-0.00265026,0.0009633054,0.0009545386,0.00314547,0.002776071,3271.246,3241.465,0,99.08992,,
	08/04/2022 06:35:49.968,1.35365e+06,3148.305,97,6,-0.001060103,2.499999,-0.00265026,0.0009367311,0.0009269104,0.003058959,0.002694774,3181.11,3147.69,0,98.9516,,
	08/04/2022 13:31:42.424,1378607.243,3083.07,101,6,-0.00106013,2.499982,-0.00265031,0.0009168709,0.0009077436,0.002993792,0.002640207,3113.597,3082.545,0,99.00452,,
	08/04/2022 20:18:43.348,1.40303e+06,3007.93,105,6,-0.001059858,2.49998,-0.00264962,0.0008952907,0.0008855909,0.00292349,0.002575675,3040.299,3007.444,0,98.91657,,
	08/05/2022 02:54:48.614,1.42679e+06,2923.92,109,6,-0.001060128,2.49994,-0.00265026,0.0008702137,0.0008608845,0.002842686,0.002502471,2955.52,2923.46,0,98.92794,,
	08/05/2022 09:20:53.333,1.44996e+06,2857.29,113,6,-0.001060147,2.499965,-0.00265033,0.0008489322,0.000841273,0.002773452,0.002445342,2882.865,2856.934,0,99.09779,,
	08/05/2022 15:40:21.712,1.47273e+06,2823.37,117,6,-0.001059969,2.499993,-0.00264992,0.0008388628,0.0008311716,0.002739501,0.00241803,2848.978,2823.027,0,99.08314,,
	08/05/2022 21:54:32.855,1.49518e+06,2771.868,121,6,-0.001059903,2.499999,-0.00264976,0.0008229953,0.000815986,0.002687412,0.002373964,2795.066,2771.557,0,99.14832,,
	08/06/2022 03:59:30.742,1.51708e+06,2700.35,125,6,-0.001059856,2.499978,-0.00264962,0.0008005963,0.0007950187,0.002615181,0.002311358,2718.771,2700.032,0,99.30331,,
	08/06/2022 09:55:19.801,1.53842e+06,2634.873,129,6,-0.001060128,2.499995,-0.00265031,0.0007817721,0.0007758089,0.002554446,0.00225431,2654.779,2634.551,0,99.23722,,
	08/06/2022 15:45:18.565,1.55942e+06,2611.388,133,6,-0.001059917,2.499967,-0.00264976,0.0007742805,0.0007687258,0.002529203,0.002235572,2629.572,2611.045,0,99.2826,,
	08/06/2022 21:31:34.868,1580199.687,2566.63,137,6,-0.001059861,2.499919,-0.00264957,0.0007618049,0.0007555552,0.002488101,0.002197264,2587.17,2566.313,0,99.17962,,
	08/07/2022 03:09:31.616,1.60048e+06,2502.44,141,6,-0.001059817,2.499976,-0.00264952,0.0007426584,0.0007366763,0.002426514,0.002140814,2522.1,2502.123,0,99.1945,,
	08/07/2022 08:40:23.515,1.62033e+06,2453.69,145,6,-0.001059853,2.499957,-0.00264959,0.0007281834,0.0007223191,0.002379663,0.002098346,2472.93,2453.387,0,99.19466,,
	08/07/2022 14:05:27.051,1.63983e+06,2419.35,149,6,-0.001059877,2.499846,-0.00264953,0.0007178771,0.0007122037,0.002345781,0.002069667,2437.998,2419.064,0,99.20969,,
	08/07/2022 19:27:30.650,1.65916e+06,2391.479,153,6,-0.001059848,2.499967,-0.00264959,0.0007093777,0.0007040239,0.002317558,0.002046262,2409.063,2391.207,0,99.24528,,
	08/08/2022 00:43:49.236,1.67813e+06,2344.53,157,6,-0.001060122,2.499991,-0.0026503,0.0006957249,0.0006903312,0.002273354,0.002005568,2362.645,2344.244,0,99.22474,,
	08/08/2022 05:53:55.565,1.69674e+06,2301.268,161,6,-0.001060135,2.499978,-0.00265031,0.0006821866,0.0006775451,0.002229686,0.001967552,2316.984,2300.872,0,99.3196,,
	08/08/2022 10:58:40.195,1.71503e+06,2266.36,165,6,-0.001059853,2.499982,-0.00264961,0.0006715964,0.0006671853,0.002195236,0.001937463,2280.646,2266.036,0,99.3432,,
	08/08/2022 16:01:13.778,1.73318e+06,2250.55,169,6,-0.001059866,2.49994,-0.0026496,0.0006674582,0.0006625154,0.002180868,0.001924848,2266.631,2250.168,0,99.25946,,
	08/08/2022 21:00:25.422,1.75113e+06,2226.17,173,6,-0.001059847,2.499982,-0.0026496,0.0006596381,0.0006552904,0.002155197,0.001904161,2240.139,2225.767,0,99.34089,,
	08/09/2022 01:54:44.763,1.76879e+06,2182.27,177,6,-0.001060106,2.499932,-0.00265019,0.0006471248,0.0006424799,0.002114802,0.001865779,2197.565,2181.867,0,99.28222,,
	08/09/2022 06:43:36.015,1.78612e+06,2145.69,181,6,-0.001060066,2.499999,-0.00265016,0.0006358065,0.0006317343,0.002078234,0.001833842,2159.214,2145.302,0,99.35952,,
	08/09/2022 11:27:54.829,1.80318e+06,2117.87,185,6,-0.001060165,2.499972,-0.00265038,0.0006270928,0.000623533,0.002049952,0.001809881,2129.813,2117.421,0,99.43234,,
	08/09/2022 16:10:59.513,1.82016e+06,2109.23,189,6,-0.001059809,2.499963,-0.00264948,0.000624544,0.0006210146,0.0020408,0.001803682,2120.87,2108.922,0,99.43489,,
	08/09/2022 20:50:57.343,1.83696e+06,2081.27,193,6,-0.00106015,2.499906,-0.00265028,0.0006169314,0.000612738,0.002015976,0.001779445,2095.073,2080.895,0,99.32029,,
	08/10/2022 01:26:37.143,1.8535e+06,2048.16,197,6,-0.001060041,2.499972,-0.00265007,0.0006064012,0.0006029585,0.001981858,0.001750269,2059.344,2047.839,0,99.43227,,
	08/10/2022 04:50:20.183,1.86573e+06,2021.43,200,6,-0.001059848,2.499978,-0.0026496,0.000599129,0.0005950733,0.001958418,0.001726746,2034.689,2021.073,0,99.32308,,