File: Cell-test-data/SiMP-LFP-PS1/JB3_SiMP-LFP-PS1_Channel_76_StatisticByStep.CSV
Date_Time                    ,Test Time (s),Step Time (s),Cycle Index,Step Index,Current (A),Voltage (V),Power (W),Charge Capacity (Ah),Discharge Capacity (Ah),Charge Energy (Wh),Discharge Energy (Wh),Charge Time (s),Discharge Time (s),V_Max_On_Cycle (V),Coulombic Efficiency (%),mAh/g
	08/05/2022 01:52:44.405,43200,43200,1.00,1.00,0,0.2528172,0,0,0,0,0,0,0,0,0,,
	08/10/2022 13:30:21.401,517057,7456.89,9.00,6.00,-0.001059987,2.499997,-0.00264996,0.002228945,0.002195285,0.007256016,0.006357646,7570.624,7455.924,0,98.48988,,
	08/12/2022 00:35:43.527,643379,6554.57,18.00,6.00,-0.001059961,2.499997,-0.0026499,0.00196669,0.001929637,0.006402823,0.005595214,6679.783,6553.649,0,98.11594,,
	08/13/2022 07:22:55.360,754211,5772.1,27.00,6.00,-0.001059987,2.499995,-0.00264996,0.001728282,0.001699288,0.005634972,0.00493148,5869.877,5771.375,0,98.32238,,
	08/14/2022 10:41:20.944,852517,5152.91,36.00,6.00,-0.001059924,2.49999,-0.0026498,0.00153826,0.001516931,0.005021865,0.004405093,5224.648,5152.198,0,98.61342,,
	08/15/2022 11:17:42.367,941098,4685.76,45.00,6.00,-0.001059934,2.499997,-0.00264983,0.001397305,0.001379438,0.004563135,0.00401064,4745.889,4685.161,0,98.72131,,
	08/16/2022 09:45:29.644,1.02197e+06,4288.58,54.00,6.00,-0.001059971,2.499995,-0.00264992,0.00128155,0.001262541,0.004185023,0.003672956,4352.648,4288.035,0,98.51669,,
	08/17/2022 06:18:46.695,1.09596e+06,3964.4,63.00,6.00,-0.001059914,2.499997,-0.00264978,0.001181639,0.001167002,0.003860374,0.003397538,4013.226,3963.795,0,98.76131,,
	08/18/2022 01:14:39.189,1.16411e+06,3611.23,72.00,6.00,-0.001059968,2.499999,-0.00264992,0.001074633,0.001063124,0.003516004,0.003089446,3649.913,3610.781,0,98.92907,,
	08/18/2022 18:43:19.146,1.22703e+06,3374.84,81.00,6.00,-0.00105997,2.499997,-0.00264992,0.001003535,0.0009935222,0.003284203,0.002887399,3408.504,3374.384,0,99.00225,,
	08/19/2022 11:02:46.792,1.2858e+06,3158.76,90.00,6.00,-0.001059975,2.499993,-0.00264993,0.0009386511,0.0009299635,0.003073472,0.002701353,3188.217,3158.341,0,99.07446,,
	08/20/2022 02:26:17.827,1.34121e+06,2980.51,99.00,6.00,-0.001059971,2.499993,-0.00264992,0.0008859303,0.0008774515,0.002901355,0.002548703,3009.003,2980.119,0,99.04295,,
	08/20/2022 16:58:19.700,1.39354e+06,2824.78,108.00,6.00,-0.001059947,2.499995,-0.00264986,0.0008390304,0.0008316056,0.002748471,0.002415104,2849.712,2824.402,0,99.11508,,
	08/21/2022 06:45:37.672,1.44317e+06,2681.23,117.00,6.00,-0.001059985,2.499976,-0.00264994,0.0007961497,0.0007894026,0.002608698,0.002291576,2704.214,2680.891,0,99.15253,,
	08/21/2022 19:53:13.356,1.49043e+06,2559.51,126.00,6.00,-0.001060005,2.499999,-0.00265001,0.0007600012,0.0007535198,0.00249063,0.002187109,2581.288,2559.16,0,99.14718,,
	08/22/2022 08:23:44.957,1.53546e+06,2441.3,135.00,6.00,-0.001060017,2.499997,-0.00265004,0.0007243634,0.0007187616,0.002374559,0.00208529,2460.358,2440.973,0,99.22665,,
	08/22/2022 20:24:43.307,1.57872e+06,2350.25,144.00,6.00,-0.001059985,2.499978,-0.00264994,0.0006971305,0.0006919115,0.002285252,0.002007548,2367.752,2349.977,0,99.25136,,
	08/23/2022 07:56:46.578,1.62024e+06,2255.82,153.00,6.00,-0.001060022,2.499999,-0.00265005,0.00066884,0.0006641308,0.002193001,0.001926068,2271.721,2255.51,0,99.29591,,
	08/23/2022 19:02:55.686,1.66021e+06,2174.08,162.00,6.00,-0.001059996,2.49999,-0.00264998,0.0006449188,0.0006400361,0.002114731,0.001855953,2190.43,2173.777,0,99.2429,,
	08/24/2022 05:43:04.929,1.69862e+06,2088.9,171.00,6.00,-0.00106007,2.499999,-0.00265017,0.0006193444,0.000615013,0.002031407,0.001782281,2103.67,2088.627,0,99.30066,,
	08/24/2022 16:01:34.220,1.73573e+06,2031.32,180.00,6.00,-0.001060013,2.499991,-0.00265002,0.0006021712,0.0005980175,0.00197488,0.001733459,2045.269,2031.031,0,99.3102,,
	08/25/2022 02:00:15.882,1.77165e+06,1955.55,189.00,6.00,-0.001060002,2.499988,-0.00264999,0.0005794798,0.000575744,0.001900976,0.001667694,1968.23,1955.302,0,99.35532,,
	08/25/2022 11:39:01.708,1.80638e+06,1900.55,198.00,6.00,-0.001059962,2.499993,-0.0026499,0.0005630049,0.0005595268,0.001847072,0.001620604,1912.275,1900.321,0,99.38222,,
	08/25/2022 21:02:57.373,1.84021e+06,1845.12,207.00,6.00,-0.00106001,2.499999,-0.00265002,0.0005466448,0.0005432206,0.001793421,0.00157295,1856.695,1844.885,0,99.37359,,
	08/26/2022 06:08:06.681,1.87292e+06,1785.23,216.00,6.00,-0.001060052,2.499993,-0.00265012,0.000528828,0.0005256124,0.001735375,0.001521175,1796.233,1784.984,0,99.39194,,
	08/26/2022 14:58:21.996,1.90474e+06,1746.63,225.00,6.00,-0.001059979,2.499997,-0.00264994,0.0005172213,0.0005142071,0.001697066,0.001488436,1756.726,1746.397,0,99.41724,,
	08/26/2022 23:35:11.102,1.93575e+06,1691.89,234.00,6.00,-0.001060047,2.499995,-0.00265011,0.0005011164,0.0004981053,0.001644554,0.001440893,1702.052,1691.639,0,99.39911,,
	08/27/2022 07:56:18.423,1.96581e+06,1645.13,243.00,6.00,-0.001060057,2.499982,-0.00265012,0.0004870027,0.0004843682,0.001598459,0.001400606,1654.152,1644.935,0,99.45902,,
	08/27/2022 16:05:35.323,1.99517e+06,1609.55,252.00,6.00,-0.001059973,2.499995,-0.00264993,0.0004766306,0.0004738498,0.00156435,0.001370195,1618.856,1609.322,0,99.41656,,
	08/28/2022 00:02:59.171,2.02381e+06,1567.86,261.00,6.00,-0.001060029,2.499999,-0.00265007,0.0004640374,0.0004616179,0.001523158,0.001334245,1576.139,1567.67,0,99.47858,,
	08/28/2022 07:47:48.000,2.0517e+06,1528.33,270.00,6.00,-0.001059993,2.499999,-0.00264998,0.0004524468,0.0004499721,0.001485294,0.00130009,1536.773,1528.139,0,99.45304,,
	08/28/2022 15:22:46.713,2.079e+06,1499.98,279.00,6.00,-0.00105998,2.499997,-0.00264995,0.000444022,0.0004416065,0.001457538,0.001275978,1508.094,1499.796,0,99.456,,
	08/28/2022 22:47:58.468,2.10571e+06,1463.99,288.00,6.00,-0.001060022,2.499978,-0.00265003,0.0004334109,0.0004310147,0.001422819,0.001244918,1472.093,1463.794,0,99.44712,,
	08/29/2022 06:02:26.840,2.13178e+06,1428.37,297.00,6.00,-0.001060043,2.499991,-0.0026501,0.0004228933,0.000420549,0.001388434,0.001214218,1436.38,1428.212,0,99.44566,,
	08/29/2022 13:07:45.848,2.1573e+06,1403.2,306.00,6.00,-0.001059993,2.499986,-0.00264997,0.0004153917,0.0004131082,0.001363721,0.001192735,1410.881,1403.007,0,99.45029,,
	08/29/2022 20:05:49.372,2.18238e+06,1375.14,315.00,6.00,-0.001060024,2.49999,-0.00265005,0.0004069747,0.0004048565,0.001336081,0.001168673,1382.288,1374.958,0,99.47952,,
	08/30/2022 02:53:57.367,2.20687e+06,1343.01,324.00,6.00,-0.001060073,2.499988,-0.00265017,0.0003974475,0.0003954094,0.001304951,0.001140917,1349.953,1342.833,0,99.48722,,
	08/30/2022 22:20:37.660,2.23084e+06,1311.9,333.00,6.00,-0.001060054,2.499997,-0.00265013,0.0003884111,0.0003862301,0.001275167,0.001114165,1319.231,1311.673,0,99.43848,,
	08/31/2022 04:50:21.881,2.25422e+06,1283.81,342.00,6.00,-0.001060105,2.499995,-0.00265026,0.0003798554,0.0003779703,0.001247091,0.001089916,1290.226,1283.571,0,99.50372,,
	08/31/2022 11:12:42.795,2.27716e+06,1262.82,351.00,6.00,-0.001060035,2.499997,-0.00265008,0.0003736072,0.0003717746,0.001226515,0.001072018,1268.95,1262.599,0,99.50949,,
	08/31/2022 17:30:05.499,2.2998e+06,1245.63,360.00,6.00,-0.001059963,2.499999,-0.00264991,0.0003686794,0.0003666977,0.001210148,0.001057429,1252.183,1245.412,0,99.46248,,
	08/31/2022 23:40:44.018,2.32204e+06,1221.72,369.00,6.00,-0.001059959,2.499984,-0.00264988,0.0003615529,0.0003596674,0.00118677,0.001036929,1227.988,1221.513,0,99.47851,,
	09/01/2022 05:44:15.340,2.34385e+06,1197.95,378.00,6.00,-0.001060008,2.499982,-0.00265,0.00035453,0.0003526631,0.001163728,0.001016448,1204.115,1197.738,0,99.47342,,
	09/01/2022 11:41:04.823,2.36526e+06,1177.22,387.00,6.00,-0.001059951,2.499999,-0.00264988,0.0003484362,0.0003465565,0.001143714,0.0009986705,1183.445,1177.02,0,99.46052,,
	09/01/2022 17:30:40.079,2.38624e+06,1150.94,396.00,6.00,-0.001059994,2.499988,-0.00264997,0.0003406146,0.0003388296,0.001118165,0.0009759698,1156.911,1150.732,0,99.47595,,
	09/01/2022 23:13:31.627,2.40681e+06,1133.22,405.00,6.00,-0.001059945,2.499999,-0.00264986,0.0003352712,0.0003336064,0.001100591,0.000960843,1138.746,1133.026,0,99.50347,,
	09/02/2022 04:51:01.168,2.42706e+06,1110.31,414.00,6.00,-0.001060016,2.499999,-0.00265004,0.0003285429,0.0003268738,0.001078574,0.0009411103,1115.9,1110.113,0,99.49195,,
	09/02/2022 10:21:46.538,2.4469e+06,1092.43,423.00,6.00,-0.001060003,2.499978,-0.00264998,0.0003231176,0.0003216131,0.001060773,0.0009258109,1097.511,1092.237,0,99.53439,,
	09/02/2022 15:48:41.129,2.46652e+06,1082.23,432.00,6.00,-0.001059921,2.499999,-0.0026498,0.0003200853,0.0003185873,0.001050687,0.0009172418,1087.138,1082.049,0,99.53201,,
	09/02/2022 21:10:30.271,2.48583e+06,1061.8,441.00,6.00,-0.001059991,2.499991,-0.00264997,0.0003140598,0.000312577,0.00103095,0.0008996647,1066.673,1061.616,0,99.52785,,
	09/03/2022 02:26:41.812,2.5048e+06,1042.89,450.00,6.00,-0.001059993,2.499995,-0.00264998,0.000308637,0.0003070176,0.001013179,0.0008834251,1048.287,1042.719,0,99.47528,,
	09/03/2022 07:37:45.861,2.52346e+06,1027.34,459.00,6.00,-0.001059996,2.499997,-0.00264999,0.0003040182,0.0003024386,0.0009979986,0.0008701285,1032.577,1027.165,0,99.48042,,
	09/03/2022 12:44:14.873,2.54185e+06,1010.87,468.00,6.00,-0.001060003,2.499991,-0.00265,0.000299103,0.0002975907,0.0009818707,0.0008560018,1015.915,1010.695,0,99.49438,,
	09/03/2022 17:45:08.174,2.55991e+06,992.5746,477.00,6.00,-0.001060007,2.499991,-0.00265001,0.0002935895,0.0002922157,0.0009638268,0.0008403055,997.1829,992.409,0,99.53206,,
	09/03/2022 22:41:09.710,2.57767e+06,978.8407,486.00,6.00,-0.001059989,2.499995,-0.00264997,0.0002895428,0.0002881606,0.0009505315,0.0008285345,983.4147,978.6751,0,99.52263,,
	09/04/2022 03:33:47.322,2.59523e+06,969.1576,495.00,6.00,-0.00105991,2.499997,-0.00264977,0.0002866088,0.0002853007,0.0009408107,0.0008203515,973.4237,968.9995,0,99.54357,,
	09/04/2022 07:51:15.510,2.61067e+06,957.7438,503.00,6.00,-0.001059963,2.499995,-0.0026499,0.0002834057,0.0002819451,0.0009302564,0.0008106252,962.5499,957.5877,0,99.48463,,