File: Cell-test-data/SiMP-LFP-PS1/JB3_SiMP-LFP-PS1_Channel_76_StatisticByCycle.CSV
Date_Time                    ,Test Time (s),Step Time (s),Cycle Index,Step Index,Current (A),Voltage (V),Power (W),Charge Capacity (Ah),Discharge Capacity (Ah),Charge Energy (Wh),Discharge Energy (Wh),Charge Time (s),Discharge Time (s),V_Max_On_Cycle (V),Coulombic Efficiency (%),mAh/g
	08/06/2022 15:17:07.282,177862.879,62145.4,1,3,-0.0001589981,2.499984,-0.000397493,0.00320236,0.002744475,0.01064497,0.008141295,72508.04,62137.39,0,85.70164,,
	08/10/2022 17:38:19.937,531936,7375.57,10,6,-0.00105991,2.499997,-0.00264977,0.002208734,0.002171329,0.007186027,0.006290721,7501.953,7374.602,0,98.3065,,
	08/12/2022 04:12:11.037,656367,6433.62,19,6,-0.001059996,2.499988,-0.00264998,0.0019293,0.001894064,0.006284509,0.00548952,6552.873,6432.787,0,98.17359,,
	08/13/2022 10:33:47.987,765663.584,5680.74,28,6,-0.001059915,2.499995,-0.00264978,0.001699159,0.001672374,0.005542797,0.004851767,5771.141,5679.978,0,98.42363,,
	08/14/2022 13:32:57.692,862813,5108.96,37,6,-0.001059975,2.49999,-0.00264993,0.001527224,0.001504071,0.004984254,0.004369887,5187.067,5108.325,0,98.48394,,
	08/15/2022 13:53:30.330,950446,4640.5,46,6,-0.001059938,2.499999,-0.00264984,0.001385773,0.001366114,0.00452474,0.003972396,4706.719,4639.874,0,98.58137,,
	08/16/2022 12:07:10.036,1030465.633,4221.29,55,6,-0.00105997,2.499995,-0.00264992,0.00125967,0.001242742,0.004116093,0.003612994,4278.512,4220.791,0,98.65617,,
	08/17/2022 08:30:29.506,1.10387e+06,3926.11,64,6,-0.001059891,2.499988,-0.00264971,0.001170704,0.001155746,0.003824721,0.00336451,3976.133,3925.615,0,98.7223,,
	08/18/2022 03:14:54.960,1.17133e+06,3589.08,73,6,-0.001059928,2.499982,-0.0026498,0.001067629,0.001056566,0.003492826,0.003070893,3626.166,3588.585,0,98.96377,,
	08/18/2022 20:35:30.146,1.23377e+06,3347.31,82,6,-0.001060005,2.499995,-0.00265001,0.0009960966,0.0009854389,0.003260095,0.002863725,3383.183,3346.863,0,98.93005,,
	08/19/2022 12:48:04.432,1.29212e+06,3144.13,91,6,-0.001059954,2.499993,-0.00264988,0.000934204,0.000925618,0.003058754,0.00268939,3173.031,3143.729,0,99.08093,,
	08/20/2022 04:05:30.947,1.34717e+06,2963.33,100,6,-0.001059994,2.499984,-0.00264997,0.0008801315,0.0008723889,0.002882412,0.002533922,2989.313,2962.923,0,99.12029,,
	08/20/2022 18:32:22.792,1.39918e+06,2808.96,109,6,-0.001059971,2.499991,-0.00264992,0.0008343012,0.0008269613,0.002733003,0.002401598,2833.673,2808.57,0,99.12024,,
	08/21/2022 08:14:53.494,1.44853e+06,2666.37,118,6,-0.001060045,2.499995,-0.00265011,0.0007916851,0.0007850152,0.002594131,0.002278831,2689.027,2666.019,0,99.1575,,
	08/21/2022 21:18:24.614,1.49554e+06,2544.85,127,6,-0.001059989,2.499976,-0.00264995,0.0007555,0.0007492225,0.002475976,0.002174482,2566.024,2544.52,0,99.16909,,
	08/22/2022 09:45:05.967,1.54034e+06,2431.17,136,6,-0.001060029,2.499995,-0.00265007,0.0007211529,0.0007157578,0.002364004,0.002076659,2449.439,2430.839,0,99.25188,,
	08/22/2022 21:43:02.062,1.58342e+06,2340.76,145,6,-0.001059971,2.499991,-0.00264992,0.0006941465,0.0006891299,0.002275477,0.001999452,2357.642,2340.483,0,99.2773,,
	08/23/2022 09:11:54.787,1.62475e+06,2245.356,154,6,-0.00106001,2.499982,-0.00265001,0.0006661195,0.0006610446,0.002184112,0.001917122,2262.496,2245.052,0,99.23814,,
	08/23/2022 20:15:20.875,1.66456e+06,2164.83,163,6,-0.001059971,2.499984,-0.00264991,0.0006418536,0.0006373169,0.002104723,0.001847976,2180.006,2164.52,0,99.29319,,
	08/24/2022 06:52:41.047,1702796.644,2080.82,172,6,-0.001060087,2.499982,-0.0026502,0.0006167754,0.0006126395,0.002023017,0.00177533,2094.961,2080.534,0,99.32944,,
	08/24/2022 17:09:14.163,1.73979e+06,2023.09,181,6,-0.001059948,2.499993,-0.00264986,0.0005995898,0.0005955925,0.001966477,0.001726308,2036.49,2022.821,0,99.33333,,
	08/25/2022 03:05:25.235,1.77556e+06,1948.19,190,6,-0.001060044,2.499995,-0.0026501,0.0005773089,0.0005735632,0.001893891,0.001661296,1960.833,1947.921,0,99.35117,,
	08/25/2022 12:42:30.398,1.81019e+06,1898.974,199,6,-0.001059933,2.499991,-0.00264982,0.0005621761,0.0005590625,0.0018443,0.001619549,1909.423,1898.728,0,99.44614,,
	08/25/2022 22:04:25.818,1.8439e+06,1838.21,208,6,-0.001060015,2.499988,-0.00265002,0.0005446504,0.0005411964,0.00178694,0.001566963,1849.937,1837.998,0,99.36583,,
	08/26/2022 07:07:38.568,1.87649e+06,1780.06,217,6,-0.001060033,2.49999,-0.00265007,0.0005274378,0.0005240915,0.001730737,0.001516809,1791.523,1779.841,0,99.36557,,
	08/26/2022 15:56:36.430,1.90823e+06,1741.68,226,6,-0.001059966,2.499999,-0.00264991,0.0005159716,0.0005127529,0.001692924,0.001484245,1752.472,1741.462,0,99.37618,,
	08/27/2022 00:31:33.432,1.93913e+06,1685.77,235,6,-0.001060066,2.499988,-0.00265015,0.0004994205,0.0004963092,0.001639029,0.001435642,1696.279,1685.534,0,99.37701,,
	08/27/2022 08:51:10.487,1.96911e+06,1641.1,244,6,-0.00106003,2.499972,-0.00265005,0.0004859898,0.0004831633,0.00159512,0.001397106,1650.703,1640.888,0,99.4184,,
	08/27/2022 16:59:14.836,1.99839e+06,1604.959,253,6,-0.001060031,2.499984,-0.00265006,0.0004752865,0.0004725063,0.001559954,0.001366249,1614.292,1604.77,0,99.41505,,
	08/28/2022 00:55:13.827,2026949.424,1562.265,262,6,-0.00106005,2.499988,-0.00265011,0.0004628615,0.0004599698,0.001519328,0.001329402,1572.139,1562.07,0,99.37527,,
	08/28/2022 08:38:47.438,2.05476e+06,1525.33,271,6,-0.001060108,2.499993,-0.00265026,0.000451588,0.0004491064,0.001482452,0.0012976,1533.851,1525.152,0,99.45048,,
	08/28/2022 16:12:46.500,2.082e+06,1495.47,280,6,-0.001059996,2.499991,-0.00264998,0.0004428235,0.0004402805,0.001453611,0.001272088,1504.067,1495.271,0,99.42574,,
	08/28/2022 23:36:46.700,2.10864e+06,1459.79,289,6,-0.001060058,2.499999,-0.00265014,0.0004322597,0.0004297929,0.001419037,0.00124135,1468.2,1459.601,0,99.42933,,
	08/29/2022 06:50:04.390,2.13464e+06,1424.83,298,6,-0.001060055,2.49998,-0.00265012,0.0004217395,0.0004195043,0.00138465,0.001211174,1432.49,1424.652,0,99.47001,,
	08/29/2022 13:54:37.781,2160113.378,1402.46,307,6,-0.001059961,2.49999,-0.00264989,0.0004149084,0.0004128903,0.001362138,0.001192204,1409.234,1402.292,0,99.5136,,
	08/29/2022 20:51:39.357,2.18513e+06,1371.08,316,6,-0.001060068,2.49999,-0.00265016,0.0004059058,0.0004036711,0.001332597,0.001165188,1378.675,1370.918,0,99.44946,,
	08/30/2022 03:38:43.309,2209558.906,1338.96,325,6,-0.001060128,2.499995,-0.00265031,0.0003964989,0.0003942099,0.001301844,0.001137409,1346.745,1338.764,0,99.4227,,
	08/30/2022 23:04:21.897,2.23346e+06,1308.16,334,6,-0.001060078,2.499997,-0.00265019,0.000387391,0.0003851265,0.001271797,0.001110907,1315.795,1307.923,0,99.41544,,
	08/31/2022 05:33:10.886,2.25679e+06,1280.85,343,6,-0.001060143,2.499972,-0.00265033,0.0003791576,0.0003771049,0.00124481,0.001087381,1287.858,1280.62,0,99.4586,,
	08/31/2022 11:54:51.537,2.27969e+06,1260.95,352,6,-0.001060031,2.499993,-0.00265007,0.000373183,0.0003712198,0.001225086,0.00107042,1267.525,1260.73,0,99.47393,,
	08/31/2022 18:11:38.345,2.3023e+06,1242.93,361,6,-0.001059963,2.499999,-0.00264991,0.0003679254,0.0003658997,0.001207677,0.001055143,1249.624,1242.715,0,99.44943,,
	09/01/2022 00:21:28.793,2.32449e+06,1219.09,370,6,-0.001059998,2.499991,-0.00264999,0.0003607917,0.0003588838,0.001184278,0.001034651,1225.417,1218.858,0,99.47117,,
	09/01/2022 06:24:11.972,2346250.374,1195.13,379,6,-0.001059977,2.499997,-0.00264994,0.0003536734,0.0003518295,0.00116094,0.001014003,1201.22,1194.925,0,99.47861,,
	09/01/2022 12:20:18.789,2.36762e+06,1173.81,388,6,-0.00106003,2.499999,-0.00265007,0.0003473897,0.0003455637,0.001140315,0.0009957405,1179.894,1173.611,0,99.47436,,
	09/01/2022 18:09:02.915,2.38854e+06,1148.444,397,6,-0.001060035,2.499999,-0.00265009,0.0003397955,0.0003381,0.001115492,0.0009738373,1154.136,1148.248,0,99.50104,,
	09/01/2022 23:51:20.174,2.40908e+06,1131.39,406,6,-0.001059943,2.499991,-0.00264985,0.0003347379,0.0003330605,0.001098817,0.0009592711,1136.898,1131.194,0,99.4989,,
	09/02/2022 05:28:03.048,2.42928e+06,1108.11,415,6,-0.00106003,2.499995,-0.00265007,0.0003278443,0.0003262271,0.001076294,0.0009392223,1113.527,1107.912,0,99.50673,,
	09/02/2022 10:58:14.362,2.44909e+06,1091.48,424,6,-0.001059994,2.499978,-0.00264996,0.0003227109,0.0003213207,0.001059433,0.0009249782,1096.096,1091.287,0,99.56921,,
	09/02/2022 16:24:47.266,2.46869e+06,1080.2,433,6,-0.001059917,2.499997,-0.00264979,0.000319656,0.0003179849,0.001049272,0.0009154939,1085.679,1080.025,0,99.4772,,
	09/02/2022 21:45:55.673,2.48795e+06,1060.04,442,6,-0.00105994,2.499995,-0.00264984,0.0003136011,0.0003120579,0.001029443,0.0008981596,1065.13,1059.86,0,99.50792,,
	09/03/2022 03:01:29.475,2.50689e+06,1041.48,451,6,-0.001059984,2.499991,-0.00264995,0.0003079511,0.0003066017,0.001010911,0.0008822097,1045.935,1041.299,0,99.56181,,
	09/03/2022 08:12:01.991,2.52552e+06,1025.69,460,6,-0.001059951,2.499976,-0.00264985,0.0003033203,0.0003019437,0.0009957248,0.0008686843,1030.203,1025.504,0,99.54614,,
	09/03/2022 13:17:57.487,2.54388e+06,1008.83,469,6,-0.001060021,2.499986,-0.00265004,0.0002984059,0.0002969937,0.0009795979,0.0008542357,1013.547,1008.665,0,99.52676,,
	09/03/2022 18:18:14.973,2.56189e+06,990.9922,478,6,-0.001060024,2.499997,-0.00265006,0.0002931198,0.0002917422,0.0009622852,0.0008389457,995.5875,990.8158,0,99.53002,,
	09/03/2022 23:13:49.216,2.57963e+06,977.4811,487,6,-0.001059963,2.499991,-0.0026499,0.0002890759,0.0002877631,0.0009489904,0.000827382,981.7979,977.3159,0,99.54587,,
	09/04/2022 04:06:08.153,2.59717e+06,968.2094,496,6,-0.001059926,2.49999,-0.0026498,0.0002863057,0.0002850148,0.0009398002,0.0008195339,972.3957,968.0429,0,99.54912,,
	09/04/2022 07:51:15.510,2.61067e+06,957.7438,503,6,-0.001059963,2.499995,-0.0026499,0.0002834057,0.0002819451,0.0009302564,0.0008106252,962.5499,957.5877,0,99.48463,,