File: Cell-test-data/SiMP-LFP-PS3/JB5_SiMPs-LFP-POF3-A7_Channel_38_StatisticByCycle.CSV
Date_Time                    ,Test Time (s),Step Time (s),Cycle Index,Step Index,Current (A),Voltage (V),Power (W),Charge Capacity (Ah),Discharge Capacity (Ah),Charge Energy (Wh),Discharge Energy (Wh),Charge Time (s),Discharge Time (s),V_Max_On_Cycle (V),Coulombic Efficiency (%),mAh/g
	05/16/2022 16:52:48.570,178755,60973.6,1,3,-0.000159006,2.499986,-0.000397513,0.003293337,0.002692661,0.01089249,0.007985577,74571.48,60965.67,0,81.76089,,
	05/19/2022 17:48:58.359,441325,6966.817,5,6,-0.001059919,2.499999,-0.0026498,0.00209602,0.00205091,0.006862991,0.00587278,7119.06,6965.847,0,97.84785,,
	05/20/2022 08:56:09.164,495755,6609.98,9,6,-0.001059942,2.499988,-0.00264984,0.001986478,0.001945921,0.006497641,0.005565684,6746.803,6609.133,0,97.95834,,
	05/20/2022 23:21:06.786,547653,6313.6,13,6,-0.001059905,2.499988,-0.00264975,0.001896193,0.001858653,0.006198833,0.005315437,6440.274,6312.74,0,98.0202,,
	05/21/2022 13:03:06.831,596973,5995.09,17,6,-0.001060103,2.499993,-0.00265025,0.001798742,0.00176517,0.005881815,0.005044807,6109.321,5994.282,0,98.13358,,
	05/22/2022 02:08:41.000,644107,5733.93,21,6,-0.001059967,2.499982,-0.0026499,0.001718999,0.001688024,0.005620541,0.004824369,5838.483,5733.21,0,98.19807,,
	05/22/2022 14:39:51.674,689178,5492.35,25,6,-0.00105988,2.499995,-0.00264969,0.001645875,0.001616862,0.005381613,0.004620951,5590.18,5491.663,0,98.23724,,
	05/23/2022 02:40:27.734,732414,5268.11,29,6,-0.001059953,2.499991,-0.00264987,0.00157808,0.001550915,0.005159657,0.004432205,5359.973,5267.44,0,98.27864,,
	05/23/2022 14:11:42.098,773888,5062.31,33,6,-0.001059942,2.499986,-0.00264984,0.001516536,0.001490316,0.004958082,0.004258483,5150.94,5061.654,0,98.27106,,
	05/24/2022 01:15:57.545,813744,4867.57,37,6,-0.001059865,2.499988,-0.00264965,0.001457271,0.001432915,0.0047646,0.004094256,4949.588,4866.928,0,98.32861,,
	05/24/2022 11:55:24.446,852111,4689.342,41,6,-0.001059946,2.499988,-0.00264985,0.001404055,0.00138049,0.004590102,0.003944018,4768.851,4688.713,0,98.32166,,
	05/24/2022 22:11:44.911,889091,4520.95,45,6,-0.001059978,2.499999,-0.00264994,0.001353355,0.001330915,0.004424173,0.003801708,4596.553,4520.348,0,98.34193,,
	05/25/2022 08:08:18.984,924885,4391.78,49,6,-0.001059853,2.499993,-0.00264963,0.001314588,0.001292809,0.004294855,0.003695828,4465.006,4391.181,0,98.34328,,
	05/25/2022 17:41:55.865,959302,4208.785,53,6,-0.001059942,2.499995,-0.00264985,0.001259503,0.001239026,0.004116419,0.003538163,4277.899,4208.287,0,98.37421,,
	05/26/2022 02:55:40.644,992527,4065.15,57,6,-0.001060013,2.499988,-0.00265002,0.00121699,0.001196815,0.003977144,0.003416895,4133.526,4064.665,0,98.3422,,
	05/26/2022 11:51:27.577,1.02467e+06,3935.08,61,6,-0.001059974,2.499978,-0.00264991,0.001177916,0.001158467,0.003849135,0.003306656,4000.802,3934.485,0,98.34884,,
	05/26/2022 20:28:54.702,1.05572e+06,3801.568,65,6,-0.001060002,2.49999,-0.00264999,0.001137742,0.001119114,0.003717663,0.003192902,3864.211,3800.906,0,98.3627,,
	05/27/2022 04:49:42.684,1.08577e+06,3682.838,69,6,-0.001059979,2.499993,-0.00264994,0.00110112,0.001084189,0.003597709,0.003092284,3739.706,3682.249,0,98.46239,,
	05/27/2022 12:55:04.433,1.11489e+06,3571.03,73,6,-0.001059936,2.499995,-0.00264983,0.001067075,0.001051243,0.003486304,0.002997661,3624.161,3570.379,0,98.5163,,
	05/27/2022 20:46:04.367,1.14315e+06,3462.93,77,6,-0.001059958,2.499993,-0.00264989,0.001034926,0.001019408,0.003380831,0.002905594,3515.026,3462.257,0,98.50062,,
	05/28/2022 04:22:45.258,1.17055e+06,3360.88,81,6,-0.001059941,2.499967,-0.00264982,0.001004593,0.0009893441,0.003281514,0.002818838,3411.988,3360.274,0,98.48205,,
	05/28/2022 11:46:32.187,1.19718e+06,3271.93,85,6,-0.001059932,2.499997,-0.00264983,0.0009773589,0.0009631464,0.003191958,0.0027437,3319.476,3271.312,0,98.54582,,
	05/28/2022 18:58:20.666,1223086.902,3181.22,89,6,-0.001059989,2.49998,-0.00264995,0.0009509207,0.0009364755,0.003105199,0.002666939,3229.603,3180.646,0,98.48093,,
	05/29/2022 01:57:33.961,1.24824e+06,3088.16,93,6,-0.001059992,2.499993,-0.00264997,0.0009224161,0.0009091073,0.003012245,0.002587514,3132.855,3087.588,0,98.55718,,
	05/29/2022 08:45:21.288,1.27271e+06,3005.66,97,6,-0.001059955,2.499993,-0.00264988,0.0008976723,0.0008847869,0.002931213,0.002517568,3048.737,3005.113,0,98.56458,,
	05/29/2022 15:23:09.666,1.29658e+06,2932.51,101,6,-0.001059852,2.49999,-0.00264962,0.000875914,0.0008632314,0.002859475,0.002455792,2974.857,2931.997,0,98.55207,,
	05/29/2022 21:50:45.931,1.31983e+06,2857.22,105,6,-0.00105988,2.499999,-0.0026497,0.0008537296,0.0008410572,0.002786673,0.002392103,2899.571,2856.687,0,98.51564,,
	05/30/2022 04:08:25.279,1.34249e+06,2784.97,109,6,-0.001059925,2.499991,-0.0026498,0.0008313694,0.0008198472,0.002713525,0.002330923,2823.658,2784.426,0,98.61407,,
	05/30/2022 10:16:42.501,1.36459e+06,2718.84,113,6,-0.001059936,2.49999,-0.00264983,0.0008112064,0.000800362,0.002647384,0.002275049,2755.152,2718.347,0,98.66319,,
	05/30/2022 16:16:09.141,1.38616e+06,2650.44,117,6,-0.001059897,2.499991,-0.00264973,0.0007912632,0.0007801745,0.002582119,0.002216906,2687.375,2649.906,0,98.59861,,
	05/30/2022 22:06:45.479,1.40719e+06,2588.21,121,6,-0.0010599,2.499995,-0.00264974,0.0007725746,0.0007618931,0.002521028,0.002164466,2623.926,2587.76,0,98.61741,,
	05/31/2022 03:49:05.678,1.42773e+06,2527.373,125,6,-0.001059922,2.499988,-0.00264979,0.0007542252,0.00074401,0.002460824,0.002113022,2561.562,2526.927,0,98.64561,,
	05/31/2022 09:23:13.428,1.44778e+06,2466.75,129,6,-0.001060004,2.49999,-0.00265,0.0007361245,0.0007261861,0.002401559,0.002061877,2500.133,2466.329,0,98.64991,,
	05/31/2022 14:49:43.317,1.46737e+06,2409.565,133,6,-0.001059891,2.49998,-0.00264971,0.0007189466,0.0007092885,0.002345372,0.002013247,2441.723,2409.119,0,98.65662,,
	05/31/2022 20:08:53.353,1.48652e+06,2357.86,137,6,-0.00105987,2.499997,-0.00264967,0.0007036157,0.0006940346,0.002295107,0.001969583,2389.655,2357.372,0,98.63831,,
	06/01/2022 01:21:10.050,1.50526e+06,2304.09,141,6,-0.001059947,2.499993,-0.00264986,0.0006876636,0.0006782439,0.00224285,0.001924399,2335.549,2303.625,0,98.63019,,
	06/01/2022 06:26:05.660,1.52355e+06,2252.21,145,6,-0.001059888,2.499993,-0.00264971,0.0006721849,0.0006629953,0.002192159,0.001880716,2282.969,2251.812,0,98.63288,,
	06/01/2022 11:24:34.607,1.54146e+06,2204.25,149,6,-0.001060071,2.499967,-0.00265014,0.0006578279,0.0006488655,0.002145171,0.001840097,2234.19,2203.915,0,98.63758,,
	06/01/2022 16:16:36.945,1.55898e+06,2156.29,153,6,-0.001059891,2.499976,-0.0026497,0.000643346,0.0006347195,0.002098009,0.001799585,2184.977,2155.9,0,98.65912,,
	06/01/2022 21:02:17.165,1.57612e+06,2109.67,157,6,-0.00105988,2.49998,-0.00264968,0.0006296056,0.000621055,0.002053071,0.0017604,2138.377,2109.288,0,98.64191,,
	06/02/2022 01:42:01.215,1.59291e+06,2066.56,161,6,-0.001059895,2.499988,-0.00264972,0.0006163797,0.000608313,0.002009754,0.001724019,2093.48,2066.171,0,98.69128,,
	06/02/2022 06:15:50.790,1.60934e+06,2025.15,165,6,-0.001059937,2.499993,-0.00264984,0.0006040911,0.0005961708,0.001969604,0.001689355,2051.76,2024.804,0,98.6889,,
	06/02/2022 10:44:06.987,1.62543e+06,1982.63,169,6,-0.001059964,2.499974,-0.00264988,0.0005916057,0.000583671,0.001928704,0.001653599,2009.323,1982.319,0,98.65878,,
	06/02/2022 15:06:51.370,1641197.606,1943,173,6,-0.001059911,2.499993,-0.00264977,0.0005794679,0.0005719339,0.00188909,0.00162005,1968.078,1942.606,0,98.69984,,
	06/02/2022 19:24:25.297,1.65665e+06,1902.424,177,6,-0.001059916,2.499978,-0.00264977,0.0005679295,0.0005600031,0.001851379,0.001585945,1928.908,1902.099,0,98.60433,,
	06/02/2022 23:36:39.479,1.67179e+06,1866.151,181,6,-0.001059916,2.499999,-0.00264979,0.0005571001,0.0005493544,0.001816053,0.001555681,1892.067,1865.836,0,98.60964,,
	06/03/2022 03:44:02.378,1.68663e+06,1830.27,185,6,-0.001059934,2.499991,-0.00264983,0.0005459743,0.0005387837,0.001779616,0.001525494,1854.348,1829.933,0,98.68298,,
	06/03/2022 07:46:42.701,1.70119e+06,1794.19,189,6,-0.001059941,2.499988,-0.00264984,0.0005354101,0.0005281582,0.001745113,0.001495222,1818.451,1793.811,0,98.64554,,
	06/03/2022 11:44:39.673,1.71547e+06,1759.5,193,6,-0.001059983,2.499988,-0.00264994,0.0005250073,0.0005179583,0.001711099,0.001466136,1783.09,1759.204,0,98.65736,,
	06/03/2022 15:38:03.765,1.72947e+06,1725.27,197,6,-0.001059914,2.499993,-0.00264978,0.0005149099,0.0005078473,0.001678308,0.001437153,1748.826,1724.914,0,98.6284,,
	06/03/2022 18:30:09.956,1.7398e+06,1701.55,200,6,-0.001059916,2.499993,-0.00264978,0.0005076646,0.0005008759,0.001654624,0.00141741,1724.219,1701.214,0,98.66277,,