File: Cell-test-data/SiMP-LFP-PS3/JB5_SiMPs-LFP-POF3-A7_Channel_38_StatisticByStep.CSV
Date_Time                    ,Test Time (s),Step Time (s),Cycle Index,Step Index,Current (A),Voltage (V),Power (W),Charge Capacity (Ah),Discharge Capacity (Ah),Charge Energy (Wh),Discharge Energy (Wh),Charge Time (s),Discharge Time (s),V_Max_On_Cycle (V),Coulombic Efficiency (%),mAh/g
	05/15/2022 03:13:33.767,43200,43200,1.00,1.00,0,0.2436438,0,0,0,0,0,0,0,0,0,,
	05/19/2022 11:54:55.109,420081,7670.8,4.00,5.00,0.001059932,3.500003,0.00370977,0.002258114,4.151428E-10,0.007411601,1.037818E-09,7669.722,0.0094,0,1.838449E-05,,
	05/20/2022 01:27:58.903,468865,6773.93,7.00,6.00,-0.001059875,2.499995,-0.00264968,0.002032875,0.001994122,0.006653177,0.005705226,6904.507,6773.062,0,98.09367,,
	05/20/2022 14:25:39.711,515526,6582.27,11.00,5.00,0.001059919,3.500009,0.00370973,0.001937773,2.856655E-09,0.006337493,7.140891E-09,6581.409,0.009699999,0,0.0001474195,,
	05/21/2022 02:50:27.151,560213,6215.02,14.00,6.00,-0.0010599,2.499997,-0.00264975,0.001867998,0.001829569,0.006107369,0.005229524,6344.455,6214.179,0,97.94278,,
	05/21/2022 14:44:02.289,603029,6055.43,18.00,5.00,0.00105996,3.500003,0.00370986,0.00178269,2.709375E-09,0.005828207,6.773798E-09,6054.672,0.0092,0,0.0001519824,,
	05/22/2022 02:08:41.000,644107,5733.93,21.00,6.00,-0.001059967,2.499982,-0.0026499,0.001718999,0.001688024,0.005620541,0.004824369,5838.483,5733.21,0,98.19807,,
	05/22/2022 13:08:19.295,683686,5590.89,25.00,5.00,0.001059942,3.500026,0.00370982,0.001645872,1.531187E-09,0.005381605,3.828288E-09,5590.172,0.0052,0,9.303197E-05,,
	05/22/2022 23:43:18.875,721785,5321.27,28.00,6.00,-0.00105995,2.49998,-0.00264985,0.001595442,0.001566513,0.005216165,0.004476749,5418.875,5320.61,0,98.18675,,
	05/23/2022 09:56:15.488,758562,5200.4,32.00,5.00,0.001059914,3.500001,0.0037097,0.001530893,3.82762E-09,0.005005227,9.569376E-09,5199.672,0.013,0,0.0002500253,,
	05/23/2022 19:47:10.442,794017,4960.36,35.00,6.00,-0.001060008,2.499988,-0.00265001,0.001486846,0.001460276,0.0048612,0.004172495,5050.085,4959.708,0,98.21295,,
	05/24/2022 05:19:04.757,828331,4859.3,39.00,5.00,0.001059967,3.500001,0.00370989,0.001430498,3.179886E-09,0.004676824,7.949638E-09,4858.673,0.0099,0,0.0002222923,,
	05/24/2022 14:31:32.450,861479,4643.95,42.00,6.00,-0.001059948,2.499993,-0.00264986,0.001390676,0.001367132,0.00454645,0.003905777,4723.401,4643.326,0,98.30707,,
	05/24/2022 23:27:41.270,893648,4556.32,46.00,5.00,0.001059937,3.500005,0.00370978,0.001341326,3.739554E-09,0.00438467,9.349072E-09,4555.723,0.0099,0,0.0002787952,,
	05/25/2022 08:08:18.984,924885,4391.78,49.00,6.00,-0.001059853,2.499993,-0.00264963,0.001314588,0.001292809,0.004294855,0.003695828,4465.006,4391.181,0,98.34328,,
	05/25/2022 16:31:47.056,955093,4278.45,53.00,5.00,0.001059917,3.500001,0.00370971,0.001259501,2.914379E-09,0.004116412,7.285478E-09,4277.893,0.009099999,0,0.0002313915,,
	05/26/2022 00:39:01.394,984328,4101.92,56.00,6.00,-0.001059955,2.49999,-0.00264988,0.001227506,0.001207622,0.00401156,0.003447838,4169.224,4101.375,0,98.38017,,
	05/26/2022 08:32:59.860,1.01277e+06,4037,60.00,5.00,0.00105995,3.50001,0.00370984,0.001188408,1.884559E-09,0.003883647,4.710989E-09,4036.435,0.0064,0,0.0001585785,,
	05/26/2022 16:12:16.278,1.04032e+06,3864.79,63.00,6.00,-0.001059981,2.499982,-0.00264993,0.001154829,0.00113777,0.003773824,0.003246197,3922.229,3864.264,0,98.5228,,
	05/26/2022 23:38:56.866,1.06712e+06,3799.84,67.00,5.00,0.00105993,3.500022,0.00370978,0.001118589,2.060855E-09,0.003654978,5.151747E-09,3799.212,0.0063,0,0.000184237,,
	05/27/2022 06:52:29.490,1.09314e+06,3654.36,70.00,6.00,-0.001059967,2.499984,-0.0026499,0.00109285,0.001075768,0.00357053,0.003068051,3711.718,3653.69,0,98.43696,,
	05/27/2022 13:55:06.823,1.11849e+06,3602.36,74.00,5.00,0.00105999,3.500026,0.00370999,0.0010605,1.972474E-09,0.003464406,4.931113E-09,3601.793,0.0067,0,0.0001859947,,
	05/27/2022 20:46:04.367,1.14315e+06,3462.93,77.00,6.00,-0.001059958,2.499993,-0.00264989,0.001034926,0.001019408,0.003380831,0.002905594,3515.026,3462.257,0,98.50062,,
	05/28/2022 03:26:44.357,1.16719e+06,3412.72,81.00,5.00,0.001059983,3.500005,0.00370995,0.001004592,1.766523E-09,0.003281509,4.416005E-09,3411.983,0.006,0,0.0001758448,,
	05/28/2022 09:56:40.094,1.19059e+06,3293.56,84.00,6.00,-0.001059986,2.499993,-0.00264996,0.0009840109,0.0009695558,0.003213961,0.0027622,3341.959,3293.033,0,98.53101,,
	05/28/2022 16:18:06.536,1.21347e+06,3249.58,88.00,5.00,0.001059934,3.500012,0.00370978,0.0009566054,1.707377E-09,0.003123821,4.268478E-09,3248.891,0.0058,0,0.0001784829,,
	05/28/2022 22:29:27.699,1.23575e+06,3131.38,91.00,6.00,-0.001060004,2.499991,-0.00265,0.0009356181,0.0009218138,0.003055392,0.002624268,3177.743,3130.821,0,98.52458,,
	05/29/2022 04:32:05.009,1.25751e+06,3090.8,95.00,5.00,0.001059983,3.500005,0.00370995,0.0009098728,1.825654E-09,0.002971177,4.564155E-09,3090.318,0.0062,0,0.0002006493,,
	05/29/2022 10:25:43.001,1.27873e+06,2989.09,98.00,6.00,-0.001059903,2.499974,-0.00264973,0.0008927604,0.0008799203,0.002914793,0.002504109,3032.025,2988.572,0,98.56175,,
	05/29/2022 16:12:23.609,1.29953e+06,2953.91,102.00,5.00,0.001059984,3.500009,0.00370995,0.0008695995,1.619179E-09,0.00283891,4.047893E-09,2953.372,0.0055,0,0.0001861982,,
	05/29/2022 21:50:45.931,1.31983e+06,2857.22,105.00,6.00,-0.00105988,2.499999,-0.0026497,0.0008537296,0.0008410572,0.002786673,0.002392103,2899.571,2856.687,0,98.51564,,
	05/30/2022 03:22:00.289,1.33971e+06,2824.24,109.00,5.00,0.00105997,3.500014,0.00370991,0.0008313681,1.737433E-09,0.00271352,4.343458E-09,2823.654,0.0059,0,0.0002089848,,
	05/30/2022 08:45:27.918,1.35911e+06,2733.48,112.00,6.00,-0.001059986,2.499988,-0.00264995,0.000816207,0.0008046593,0.002663872,0.002287297,2772.216,2732.86,0,98.58519,,
	05/30/2022 14:02:44.402,1.37815e+06,2705.17,116.00,5.00,0.00105996,3.500005,0.00370987,0.000796347,1.766692E-09,0.002598758,4.416843E-09,2704.7,0.005,0,0.0002218496,,
	05/30/2022 19:12:27.709,1.39673e+06,2617.87,119.00,6.00,-0.001059951,2.49999,-0.00264987,0.0007815811,0.0007706003,0.002550466,0.002189454,2654.524,2617.385,0,98.59506,,
	05/31/2022 00:16:20.533,1.41497e+06,2592.24,123.00,5.00,0.001059998,3.500005,0.00371,0.0007630771,1.648634E-09,0.002489775,4.121342E-09,2591.718,0.0056,0,0.0002160507,,
	05/31/2022 05:13:22.541,1.43279e+06,2510.45,126.00,6.00,-0.001059958,2.499995,-0.00264989,0.0007496099,0.0007390176,0.002445747,0.002098706,2545.909,2510.021,0,98.58697,,
	05/31/2022 10:04:43.861,1.45027e+06,2490.4,130.00,5.00,0.001059972,3.500001,0.0037099,0.0007331301,2.237761E-09,0.002391724,5.594237E-09,2489.956,0.0069,0,0.0003052338,,
	05/31/2022 14:49:43.317,1.46737e+06,2409.57,133.00,6.00,-0.001059891,2.49998,-0.00264971,0.0007189466,0.0007092885,0.002345372,0.002013247,2441.723,2409.119,0,98.65662,,
	05/31/2022 19:29:35.470,1.48416e+06,2390.1,137.00,5.00,0.001059976,3.50001,0.00370993,0.0007036137,1.707698E-09,0.0022951,4.268812E-09,2389.648,0.0058,0,0.0002427039,,
	06/01/2022 00:03:49.827,1.50062e+06,2317.58,140.00,6.00,-0.001059947,2.499999,-0.00264987,0.0006919039,0.0006822252,0.002256784,0.001935756,2349.891,2317.178,0,98.60115,,
	06/01/2022 04:32:45.338,1.51675e+06,2295.33,144.00,5.00,0.001059989,3.500016,0.00370998,0.0006757145,1.972627E-09,0.002203729,4.931318E-09,2294.917,0.0058,0,0.000291932,,
	06/01/2022 08:56:08.269,1.53255e+06,2230.37,147.00,6.00,-0.001059953,2.499991,-0.00264987,0.0006654371,0.0006565544,0.002170089,0.001862232,2260.003,2229.99,0,98.66513,,
	06/01/2022 13:15:05.607,1.54809e+06,2213.63,151.00,5.00,0.001059972,3.500001,0.0037099,0.0006516524,1.855372E-09,0.002124924,4.63824E-09,2213.233,0.0063,0,0.0002847181,,
	06/01/2022 17:28:37.103,1.5633e+06,2145.35,154.00,6.00,-0.001060062,2.499982,-0.00265014,0.0006402183,0.000631616,0.002087714,0.001790826,2174.381,2145.018,0,98.65635,,
	06/01/2022 21:37:46.012,1.57825e+06,2128.82,158.00,5.00,0.001059921,3.500016,0.00370974,0.0006266622,1.589828E-09,0.002043421,3.974675E-09,2128.414,0.0054,0,0.0002536978,,
	06/02/2022 01:42:01.215,1.59291e+06,2066.56,161.00,6.00,-0.001059895,2.499988,-0.00264972,0.0006163797,0.000608313,0.002009754,0.001724019,2093.48,2066.171,0,98.69128,,
	06/02/2022 05:42:05.618,1.60731e+06,2052.16,165.00,5.00,0.001059934,3.500005,0.00370977,0.0006040899,1.295332E-09,0.0019696,3.23816E-09,2051.755,0.0044,0,0.0002144271,,
	06/02/2022 09:37:34.616,1.62144e+06,1993.32,168.00,6.00,-0.001059958,2.499993,-0.00264989,0.0005949217,0.0005867932,0.00193957,0.001662574,2020.599,1992.937,0,98.63369,,
	06/02/2022 13:29:08.193,1.63533e+06,1978.98,172.00,5.00,0.001059942,3.50001,0.00370981,0.0005825807,1.295459E-09,0.001899342,3.238609E-09,1978.623,0.0044,0,0.0002223656,,
	06/02/2022 17:16:18.510,1.64896e+06,1924.89,175.00,6.00,-0.001059932,2.499991,-0.00264982,0.0005744598,0.0005666241,0.00187262,0.001605086,1951.031,1924.573,0,98.63598,,
	06/02/2022 20:59:42.068,1.66237e+06,1907.79,179.00,5.00,0.001059975,3.500016,0.00370993,0.0005615985,5.888772E-10,0.001830724,1.472191E-09,1907.388,0.002,0,0.0001048573,,
	06/03/2022 00:38:56.280,1.67552e+06,1855.71,182.00,6.00,-0.001059933,2.499993,-0.00264983,0.0005537375,0.0005462793,0.001804935,0.001546909,1880.689,1855.401,0,98.65311,,
	06/03/2022 04:14:48.520,1.68847e+06,1846.11,186.00,5.00,0.001059941,3.500001,0.00370979,0.0005434573,1.589955E-09,0.001771347,3.974741E-09,1845.784,0.0045,0,0.000292563,,
	06/03/2022 07:46:42.701,1.70119e+06,1794.19,189.00,6.00,-0.001059941,2.499988,-0.00264984,0.0005354101,0.0005281582,0.001745113,0.001495222,1818.451,1793.811,0,98.64554,,
	06/03/2022 11:15:20.150,1.71371e+06,1783.39,193.00,5.00,0.001059937,3.500012,0.00370979,0.0005250057,1.619397E-09,0.001711094,4.048467E-09,1783.085,0.0055,0,0.0003084532,,
	06/03/2022 14:40:09.275,1.726e+06,1734.2,196.00,6.00,-0.001059944,2.499999,-0.00264986,0.0005175201,0.0005104863,0.001686695,0.001444828,1757.658,1733.859,0,98.64086,,
	06/03/2022 18:01:48.382,1.73809e+06,1724.53,200.00,5.00,0.001059967,3.500026,0.00370991,0.0005076634,1.619277E-09,0.00165462,4.047685E-09,1724.215,0.0055,0,0.0003189667,,
	06/03/2022 18:30:09.956,1.7398e+06,1701.55,200.00,6.00,-0.001059916,2.499993,-0.00264978,0.0005076646,0.0005008759,0.001654624,0.00141741,1724.219,1701.214,0,98.66277,,