File: Cell-test-data/SiMP-LFP-PFP3/JB7_SiMP-LFP-PFP3_03C_Channel_91_StatisticByCycle.CSV
Date_Time                    ,Test Time (s),Step Time (s),Cycle Index,Step Index,Current (A),Voltage (V),Power (W),Charge Capacity (Ah),Discharge Capacity (Ah),Charge Energy (Wh),Discharge Energy (Wh),Charge Time (s),Discharge Time (s),V_Max_On_Cycle (V),Coulombic Efficiency (%),mAh/g
	07/21/2022 17:13:32.690,182256.542,62974.8,1,3,-0.0001589956,2.499999,-0.000397489,0.003359664,0.002780787,0.01115204,0.008239089,76068.3,62965.49,0,82.7698,,
	07/24/2022 21:08:31.356,455555,7079.69,5,6,-0.00106017,2.499995,-0.00265042,0.002133557,0.002084348,0.007065822,0.005936029,7246.185,7078.616,0,97.69357,,
	07/25/2022 12:21:20.991,510325,6617.52,9,6,-0.001059909,2.49999,-0.00264976,0.001988088,0.001948238,0.006584303,0.00554683,6751.646,6616.545,0,97.9956,,
	07/26/2022 02:38:01.221,561725,6221.143,13,6,-0.001060124,2.499978,-0.00265029,0.001865235,0.001831609,0.006180356,0.005216498,6334.465,6220.246,0,98.19723,,
	07/26/2022 16:06:27.437,610231,5884.51,17,6,-0.001059856,2.499991,-0.00264963,0.001763375,0.001732203,0.005845983,0.004936555,5988.885,5883.666,0,98.23222,,
	07/27/2022 04:52:40.079,656204,5590.76,21,6,-0.001060182,2.499991,-0.00265045,0.001674576,0.001645993,0.005553577,0.00469347,5686.866,5589.903,0,98.29311,,
	07/27/2022 17:02:04.146,699968,5330.77,25,6,-0.00105987,2.499993,-0.00264967,0.001595034,0.001569198,0.00529156,0.004477113,5417.296,5329.974,0,98.38027,,
	07/28/2022 04:37:45.995,741710,5086.37,29,6,-0.001059858,2.499993,-0.00264964,0.001520268,0.001497336,0.005045243,0.004273509,5162.998,5085.673,0,98.49158,,
	07/28/2022 15:41:19.214,781523.066,4845.76,33,6,-0.001059903,2.499993,-0.00264975,0.00144653,0.001426482,0.004802809,0.004071501,4912.886,4845.129,0,98.61408,,
	07/29/2022 02:15:09.124,819553,4633.21,37,6,-0.001059877,2.499995,-0.00264969,0.001386077,0.001363915,0.00460331,0.003894567,4707.481,4632.597,0,98.40107,,
	07/29/2022 12:22:47.833,856012,4455.722,41,6,-0.001059847,2.499995,-0.00264961,0.0013305,0.001311622,0.004419785,0.003746371,4518.635,4455.116,0,98.58118,,
	07/29/2022 22:08:31.773,891156,4294.43,45,6,-0.00105991,2.499972,-0.00264975,0.001281137,0.001264142,0.004256001,0.003613107,4351.291,4293.821,0,98.67344,,
	07/30/2022 07:28:35.191,924759,4111.3,49,6,-0.001059914,2.499999,-0.00264978,0.001226125,0.00121027,0.004075235,0.0034584,4164.288,4110.76,0,98.70692,,
	07/30/2022 16:28:28.817,957153,3974.93,53,6,-0.001059972,2.499991,-0.00264992,0.001184903,0.001170151,0.003938925,0.003345799,4024.666,3974.38,0,98.755,,
	07/31/2022 01:08:54.731,988379,3820.01,57,6,-0.001059958,2.499997,-0.00264989,0.001138744,0.001124532,0.003786818,0.003214414,3867.616,3819.525,0,98.75198,,
	07/31/2022 09:30:26.353,1018470.205,3694.695,61,6,-0.001059886,2.499995,-0.00264971,0.001101401,0.001087633,0.003662945,0.0031098,3740.665,3694.268,0,98.74996,,
	07/31/2022 17:35:08.934,1.04755e+06,3567.39,65,6,-0.001059948,2.499991,-0.00264986,0.001062981,0.001050186,0.003535951,0.003002031,3610.326,3566.907,0,98.79627,,
	08/01/2022 01:25:53.381,1.0758e+06,3463.85,69,6,-0.001059905,2.499986,-0.00264975,0.0010324,0.001019693,0.003434277,0.002915432,3506.499,3463.432,0,98.76913,,
	08/01/2022 09:01:28.956,1.10313e+06,3362.12,73,6,-0.001059925,2.499993,-0.00264981,0.001001043,0.0009897454,0.003330483,0.002830481,3399.889,3361.681,0,98.87146,,
	08/01/2022 16:24:26.559,1.12971e+06,3284.95,77,6,-0.001059956,2.499993,-0.00264988,0.000976353,0.0009670567,0.003248147,0.002766912,3316.314,3284.536,0,99.04786,,
	08/01/2022 23:39:59.922,1.15584e+06,3229.6,81,6,-0.001059961,2.499988,-0.00264989,0.0009597606,0.0009507709,0.003191872,0.002722433,3259.945,3229.191,0,99.06333,,
	08/02/2022 06:46:27.633,1.18143e+06,3152.07,85,6,-0.001059949,2.499984,-0.00264986,0.0009387005,0.000927951,0.00312152,0.002657797,3188.186,3151.649,0,98.85486,,
	08/02/2022 13:38:07.689,1.20613e+06,3017.09,89,6,-0.001059896,2.499984,-0.00264972,0.0008966253,0.0008881516,0.002984294,0.002538619,3045.169,3016.712,0,99.05494,,
	08/02/2022 20:16:45.570,1.23005e+06,2947.22,93,6,-0.001059891,2.49998,-0.00264971,0.0008768667,0.0008676039,0.002918647,0.002480448,2978.118,2946.825,0,98.94366,,
	08/03/2022 02:46:33.779,1.25344e+06,2879.69,97,6,-0.001059903,2.499991,-0.00264975,0.000855898,0.0008477043,0.002849096,0.002423313,2906.97,2879.285,0,99.04269,,
	08/03/2022 09:07:16.142,1.27628e+06,2820.88,101,6,-0.001059878,2.499988,-0.00264968,0.0008375028,0.000830402,0.002787951,0.002373931,2844.331,2820.503,0,99.15215,,
	08/03/2022 15:20:53.757,1.2987e+06,2776.45,105,6,-0.001059925,2.499995,-0.00264981,0.0008246145,0.0008173469,0.002744702,0.002337645,2800.838,2776.123,0,99.11868,,
	08/03/2022 21:26:23.414,1.32063e+06,2704.011,109,6,-0.00105991,2.499988,-0.00264976,0.0008025463,0.000796008,0.002672123,0.002274909,2725.729,2703.677,0,99.1853,,
	08/04/2022 03:26:43.377,1.34225e+06,2673.14,113,6,-0.001059935,2.499991,-0.00264983,0.0007948249,0.0007869278,0.002645531,0.002250147,2699.597,2672.8,0,99.00644,,
	08/04/2022 09:17:47.205,1363311.057,2597.91,117,6,-0.001059947,2.499999,-0.00264987,0.0007709698,0.0007647897,0.002567314,0.002185275,2618.515,2597.569,0,99.1984,,
	08/04/2022 15:03:18.481,1.38404e+06,2568.3,121,6,-0.001059907,2.499995,-0.00264976,0.0007627966,0.0007560631,0.00253969,0.002161104,2590.8,2567.955,0,99.11727,,
	08/04/2022 20:43:39.396,1.40446e+06,2528.92,125,6,-0.001059923,2.499999,-0.00264981,0.00074997,0.0007444952,0.002496983,0.00212815,2547.296,2528.601,0,99.27,,
	08/05/2022 02:17:20.743,1.42448e+06,2468.695,129,6,-0.001059914,2.499999,-0.00264978,0.0007331909,0.0007267335,0.002441621,0.00207622,2490.237,2468.387,0,99.11928,,
	08/05/2022 07:44:11.031,1.44409e+06,2432.25,133,6,-0.001059882,2.49999,-0.00264969,0.0007205863,0.0007159882,0.002399772,0.002045217,2447.351,2431.906,0,99.3619,,
	08/05/2022 13:06:34.386,1.46344e+06,2398.81,137,6,-0.001059891,2.499997,-0.00264972,0.0007112573,0.0007061705,0.002368669,0.002017724,2415.829,2398.495,0,99.28481,,
	08/05/2022 18:27:11.994,1.48268e+06,2388.92,141,6,-0.00105994,2.499978,-0.00264983,0.0007082853,0.0007032635,0.002358003,0.002010666,2405.745,2388.609,0,99.29099,,
	08/05/2022 23:43:32.831,1.50166e+06,2347.05,145,6,-0.00105987,2.499993,-0.00264967,0.0006960882,0.0006909223,0.002317484,0.001974658,2364.246,2346.732,0,99.25787,,
	08/06/2022 04:53:16.487,1.52024e+06,2292.76,149,6,-0.001059886,2.499993,-0.00264971,0.000680536,0.000674926,0.002266382,0.001927615,2311.395,2292.445,0,99.17565,,
	08/06/2022 09:56:23.975,1.53843e+06,2250.06,153,6,-0.001059892,2.499986,-0.00264972,0.0006669813,0.0006623561,0.002221714,0.001891028,2265.278,2249.778,0,99.30656,,
	08/06/2022 14:55:37.643,1.55638e+06,2233.96,157,6,-0.001059896,2.499999,-0.00264974,0.0006622503,0.0006576384,0.002205608,0.001878452,2249.369,2233.652,0,99.3036,,
	08/06/2022 19:54:21.192,1.57431e+06,2224,161,6,-0.001059914,2.499999,-0.00264978,0.0006595443,0.0006547052,0.00219597,0.001870839,2240.178,2223.701,0,99.2663,,
	08/07/2022 00:48:31.978,1.59196e+06,2180.255,165,6,-0.001059898,2.499988,-0.00264973,0.00064666,0.0006418165,0.002153495,0.001832935,2196.353,2179.96,0,99.25101,,
	08/07/2022 05:36:50.373,1.60925e+06,2139.75,169,6,-0.001059856,2.49999,-0.00264963,0.0006344157,0.000629884,0.002113143,0.00179793,2154.716,2139.443,0,99.2857,,
	08/07/2022 10:20:14.442,1.62626e+06,2105.85,173,6,-0.001059917,2.499991,-0.00264978,0.0006235562,0.0006199123,0.002077357,0.001768807,2117.788,2105.543,0,99.41563,,
	08/07/2022 15:00:41.610,1.64309e+06,2097.95,177,6,-0.001059947,2.499999,-0.00264987,0.0006213756,0.0006175783,0.002069726,0.001762893,2110.541,2097.603,0,99.3889,,
	08/07/2022 19:40:00.907,1.65984e+06,2076.74,181,6,-0.001059898,2.499997,-0.00264974,0.0006158564,0.0006113257,0.002051121,0.001745141,2091.7,2076.363,0,99.26434,,
	08/08/2022 00:15:24.675,1676368.527,2048.27,185,6,-0.001059853,2.499993,-0.00264963,0.0006064488,0.0006029225,0.002019925,0.00172071,2059.748,2047.88,0,99.41853,,
	08/08/2022 04:46:21.337,1.69263e+06,2011.5,189,6,-0.00105985,2.499991,-0.00264962,0.0005965054,0.0005921058,0.001987208,0.001688971,2025.917,2011.135,0,99.26244,,
	08/08/2022 09:13:09.374,1.70863e+06,1985.63,193,6,-0.001059854,2.499991,-0.00264963,0.0005886288,0.0005845035,0.001961269,0.00166709,1999.069,1985.304,0,99.29918,,
	08/08/2022 13:37:33.914,1.7245e+06,1978.94,197,6,-0.001059861,2.499988,-0.00264964,0.0005860639,0.0005825247,0.001952308,0.001662002,1990.518,1978.613,0,99.39612,,
	08/08/2022 16:55:28.937,1.73637e+06,1967.37,200,6,-0.001059896,2.499986,-0.00264973,0.0005827526,0.0005791146,0.001941221,0.001652381,1979.255,1967.016,0,99.37572,,