File: Cell-test-data/SiMP-LFP-PFP3/JB7_SiMP-LFP-PFP3_03C_Channel_91_StatisticByStep.CSV
Date_Time                    ,Test Time (s),Step Time (s),Cycle Index,Step Index,Current (A),Voltage (V),Power (W),Charge Capacity (Ah),Discharge Capacity (Ah),Charge Energy (Wh),Discharge Energy (Wh),Charge Time (s),Discharge Time (s),V_Max_On_Cycle (V),Coulombic Efficiency (%),mAh/g
	07/20/2022 02:35:56.148,43200,43200,1.00,1.00,0,0.2788239,0,0,0,0,0,0,0,0,0,,
	07/24/2022 15:07:58.809,433923,7973,4.00,5.00,0.001059982,3.500009,0.00370995,0.002347234,4.151848E-10,0.007786741,1.03798E-09,7971.788,0.0094,0,1.768826E-05,,
	07/25/2022 04:52:13.228,483377,6828.85,7.00,6.00,-0.001059824,2.499995,-0.00264955,0.002052416,0.002010487,0.006796492,0.005723247,6970.215,6827.849,0,97.95712,,
	07/25/2022 17:49:33.359,530017,6547.83,11.00,5.00,0.001059962,3.500001,0.00370987,0.001927613,2.738277E-09,0.006385005,6.845884E-09,6546.802,0.0093,0,0.0001420554,,
	07/26/2022 06:04:25.104,574109,6129.62,14.00,6.00,-0.00106012,2.499997,-0.0026503,0.001841348,0.001804748,0.006101609,0.005141354,6253.269,6128.71,0,98.01232,,
	07/26/2022 17:45:11.925,616156,5924.46,18.00,5.00,0.001059958,3.500012,0.00370987,0.001744109,2.914647E-09,0.005781638,7.28631E-09,5923.606,0.0099,0,0.0001671138,,
	07/27/2022 04:52:40.079,656204,5590.76,21.00,6.00,-0.001060182,2.499991,-0.00265045,0.001674576,0.001645993,0.005553577,0.00469347,5686.866,5589.903,0,98.29311,,
	07/27/2022 15:33:13.353,694637,5418.09,25.00,5.00,0.001059928,3.500009,0.00370976,0.001595031,2.767464E-09,0.005291552,6.918906E-09,5417.289,0.0094,0,0.0001735053,,
	07/28/2022 01:46:55.885,731460,5140.51,28.00,6.00,-0.001059828,2.499995,-0.00264956,0.00153964,0.001513485,0.00510886,0.00431912,5228.733,5139.802,0,98.3012,,
	07/28/2022 11:36:54.200,766858,4991.56,32.00,5.00,0.001060054,3.500018,0.00371021,0.001469579,2.56139E-09,0.004878417,6.403337E-09,4990.889,0.007999999,0,0.0001742941,,
	07/28/2022 21:02:05.276,800769,4744.69,35.00,6.00,-0.001059868,2.499978,-0.00264965,0.001419487,0.001396696,0.004713052,0.003987888,4821.035,4744.066,0,98.39443,,
	07/29/2022 06:06:20.424,833424,4616.46,39.00,5.00,0.001059989,3.500001,0.00370996,0.001359107,1.413238E-09,0.004514232,3.533198E-09,4615.866,0.0048,0,0.0001039828,,
	07/29/2022 14:50:51.782,864896,4412.51,42.00,6.00,-0.001059886,2.499969,-0.00264968,0.001316333,0.001298972,0.004373336,0.003710566,4470.779,4411.921,0,98.68108,,
	07/29/2022 23:20:12.353,895456,4300.55,46.00,5.00,0.001059968,3.500005,0.00370989,0.001266034,2.384857E-09,0.004206694,5.962438E-09,4299.947,0.0081,0,0.0001883724,,
	07/30/2022 07:28:35.191,924759,4111.3,49.00,6.00,-0.001059914,2.499999,-0.00264978,0.001226125,0.00121027,0.004075235,0.0034584,4164.288,4110.76,0,98.70692,,
	07/30/2022 15:22:13.862,953178,4025.21,53.00,5.00,0.001059884,3.50001,0.0037096,0.001184901,1.530983E-09,0.003938916,3.827443E-09,4024.658,0.0052,0,0.0001292077,,
	07/30/2022 23:00:46.545,980690,3850,56.00,6.00,-0.0010599,2.499995,-0.00264974,0.001146917,0.001133379,0.003813541,0.003239195,3895.424,3849.5,0,98.81967,,
	07/31/2022 06:24:30.480,1.00731e+06,3768.37,60.00,5.00,0.001059986,3.500026,0.00370998,0.001109384,1.531015E-09,0.003689236,3.827516E-09,3767.872,0.0052,0,0.0001380059,,
	07/31/2022 13:34:56.120,1.03314e+06,3626.8,63.00,6.00,-0.001059939,2.49998,-0.00264983,0.001080674,0.001067667,0.003594263,0.003052454,3670.388,3626.306,0,98.79639,,
	07/31/2022 20:33:32.524,1.05826e+06,3568.93,67.00,5.00,0.001059917,3.500001,0.00370971,0.001050605,3.562696E-09,0.003494484,8.906363E-09,3568.474,0.0121,0,0.000339109,,
	08/01/2022 03:21:03.294,1.08271e+06,3435.76,70.00,6.00,-0.001059914,2.499999,-0.00264978,0.001022726,0.001011418,0.003402571,0.002891717,3473.641,3435.33,0,98.89425,,
	08/01/2022 09:57:43.497,1.10651e+06,3374.51,74.00,5.00,0.001059907,3.500005,0.00370968,0.0009934189,3.150296E-09,0.003305221,7.875734E-09,3374.059,0.0107,0,0.0003171165,,
	08/01/2022 16:24:26.559,1.12971e+06,3284.95,77.00,6.00,-0.001059956,2.499993,-0.00264988,0.000976353,0.0009670567,0.003248147,0.002766912,3316.314,3284.536,0,99.04786,,
	08/01/2022 22:46:10.298,1.15261e+06,3260.36,81.00,5.00,0.001060165,3.500007,0.00371058,0.0009597579,2.709017E-09,0.003191862,6.772591E-09,3259.935,0.0092,0,0.0002822605,,
	08/02/2022 05:00:46.922,1.17509e+06,3171.9,84.00,6.00,-0.001059942,2.499993,-0.00264985,0.0009435014,0.0009337733,0.003137421,0.002674323,3204.653,3171.472,0,98.96895,,
	08/02/2022 11:06:20.604,1.19702e+06,3076.2,88.00,5.00,0.001060025,3.500003,0.00371009,0.0009056149,2.002117E-09,0.003013491,5.005288E-09,3075.818,0.0068,0,0.0002210782,,
	08/02/2022 16:58:31.974,1.21816e+06,2983.7,91.00,6.00,-0.001059873,2.49998,-0.00264966,0.0008869611,0.0008783239,0.002952185,0.002510938,3012.277,2983.327,0,99.0262,,
	08/02/2022 22:44:10.154,1.23889e+06,2949.83,95.00,5.00,0.001059889,3.500005,0.00370962,0.0008683832,1.766855E-09,0.002890171,4.417288E-09,2949.445,0.006,0,0.0002034649,,
	08/03/2022 04:22:30.722,1.25919e+06,2866.74,98.00,6.00,-0.001059928,2.499976,-0.00264979,0.0008508553,0.0008438964,0.002832293,0.002412332,2889.795,2866.34,0,99.18214,,
	08/03/2022 09:54:28.245,1.27911e+06,2832.07,102.00,5.00,0.001059982,3.500005,0.00370994,0.0008337531,1.796028E-09,0.002775425,4.489944E-09,2831.693,0.0061,0,0.0002154149,,
	08/03/2022 15:20:53.757,1.2987e+06,2776.45,105.00,6.00,-0.001059925,2.499995,-0.00264981,0.0008246145,0.0008173469,0.002744702,0.002337645,2800.838,2776.123,0,99.11868,,
	08/03/2022 20:41:19.378,1.31792e+06,2726.08,109.00,5.00,0.001059993,3.500003,0.00370998,0.000802545,2.70927E-09,0.002672118,6.773215E-09,2725.725,0.0092,0,0.0003375849,,
	08/04/2022 01:57:10.231,1.33687e+06,2694.42,112.00,6.00,-0.0010599,2.499991,-0.00264974,0.0008001369,0.0007931973,0.00266332,0.002268699,2717.741,2694.072,0,99.13269,,
	08/04/2022 07:07:19.525,1.35548e+06,2635.66,116.00,5.00,0.001059973,3.50002,0.00370993,0.0007759021,1.619279E-09,0.002583575,4.048113E-09,2635.276,0.0055,0,0.0002086964,,
	08/04/2022 12:10:55.850,1.3737e+06,2585.39,119.00,6.00,-0.001059898,2.499997,-0.00264974,0.0007672178,0.0007611117,0.002554647,0.002175567,2605.831,2585.036,0,99.20412,,
	08/04/2022 17:11:36.646,1.39174e+06,2567.71,123.00,5.00,0.001059906,3.500007,0.00370968,0.0007559021,3.032425E-09,0.002516813,7.58125E-09,2567.344,0.0103,0,0.0004011664,,
	08/04/2022 22:07:51.227,1.40952e+06,2513.31,126.00,6.00,-0.001059886,2.499995,-0.00264971,0.0007472791,0.0007398758,0.002488016,0.002114818,2538.121,2512.974,0,99.0093,,
	08/05/2022 02:58:35.736,1.42696e+06,2474.96,130.00,5.00,0.001059975,3.500003,0.00370992,0.0007285978,1.766396E-09,0.002426441,4.415813E-09,2474.624,0.006,0,0.0002424378,,
	08/05/2022 07:44:11.031,1.44409e+06,2432.25,133.00,6.00,-0.001059882,2.49999,-0.00264969,0.0007205863,0.0007159882,0.002399772,0.002045217,2447.351,2431.906,0,99.3619,,
	08/05/2022 12:26:35.548,1.46104e+06,2416.15,137.00,5.00,0.001059923,3.500001,0.00370973,0.000711255,3.445018E-09,0.00236866,8.612226E-09,2415.821,0.0101,0,0.0004843577,,
	08/05/2022 17:07:16.957,1.47788e+06,2393.58,140.00,6.00,-0.001059914,2.499991,-0.00264978,0.0007106685,0.000704633,0.002366032,0.002014527,2413.828,2393.26,0,99.15073,,
	08/05/2022 21:45:43.026,1.49459e+06,2376.97,144.00,5.00,0.001059898,3.50002,0.00370966,0.0006997235,2.355761E-09,0.002329566,5.888894E-09,2376.62,0.007999999,0,0.0003366703,,
	08/06/2022 02:19:19.570,1.511e+06,2320.67,147.00,6.00,-0.001059907,2.499993,-0.00264976,0.0006886271,0.0006831392,0.002293008,0.001951698,2338.883,2320.334,0,99.20306,,
	08/06/2022 06:47:45.125,1.52711e+06,2287.92,151.00,5.00,0.001059968,3.500012,0.0037099,0.0006735424,2.20832E-09,0.002243269,5.520688E-09,2287.604,0.0075,0,0.0003278664,,
	08/06/2022 11:11:26.577,1.54293e+06,2243.04,154.00,6.00,-0.00105991,2.499999,-0.00264977,0.0006651859,0.0006602874,0.002215757,0.001885157,2259.194,2242.727,0,99.2636,,
	08/06/2022 15:33:08.598,1.55863e+06,2250.93,158.00,5.00,0.001059876,3.500007,0.00370957,0.0006626212,2.944348E-09,0.002206564,7.36159E-09,2250.633,0.01,0,0.0004443485,,
	08/06/2022 19:54:21.192,1.57431e+06,2224,161.00,6.00,-0.001059914,2.499999,-0.00264978,0.0006595443,0.0006547052,0.00219597,0.001870839,2240.178,2223.701,0,99.2663,,
	08/07/2022 00:12:11.700,1.58978e+06,2196.68,165.00,5.00,0.00105991,3.500007,0.00370969,0.0006466577,4.092786E-09,0.002153487,1.023192E-08,2196.345,0.0139,0,0.0006329138,,
	08/07/2022 04:25:15.501,1.60496e+06,2148.39,168.00,6.00,-0.001059875,2.499995,-0.00264968,0.0006377471,0.0006324249,0.002124177,0.001805358,2166.019,2148.062,0,99.16547,,
	08/07/2022 08:34:38.873,1.61992e+06,2127.33,172.00,5.00,0.001059976,3.500012,0.00370993,0.0006262703,3.150133E-09,0.002086276,7.874969E-09,2127.019,0.0107,0,0.0005029989,,
	08/07/2022 12:40:27.959,1.63467e+06,2095.58,175.00,6.00,-0.001059921,2.499991,-0.00264979,0.0006203106,0.0006168892,0.002066548,0.001760241,2106.848,2095.239,0,99.44844,,
	08/07/2022 16:45:54.920,1.6494e+06,2106.53,179.00,5.00,0.001059926,3.500005,0.00370975,0.0006200839,2.002384E-09,0.002065177,5.005815E-09,2106.161,0.0058,0,0.0003229214,,
	08/07/2022 20:49:14.657,1.664e+06,2068.37,182.00,6.00,-0.001059917,2.499991,-0.00264978,0.0006138626,0.0006088454,0.002044554,0.001738154,2084.947,2067.99,0,99.18269,,
	08/08/2022 00:49:38.923,1.67842e+06,2054.22,186.00,5.00,0.001059943,3.500003,0.0037098,0.0006047253,2.001842E-09,0.002014272,5.004423E-09,2053.874,0.0058,0,0.0003310333,,
	08/08/2022 04:46:21.337,1.69263e+06,2011.5,189.00,6.00,-0.00105985,2.499991,-0.00264962,0.0005965054,0.0005921058,0.001987208,0.001688971,2025.917,2011.135,0,99.26244,,
	08/08/2022 08:40:03.720,1.70665e+06,1999.44,193.00,5.00,0.001059995,3.500009,0.00370999,0.000588627,2.001839E-09,0.001961263,5.004786E-09,1999.063,0.0057,0,0.0003400862,,
	08/08/2022 12:31:24.036,1.72053e+06,1977.13,196.00,6.00,-0.001059863,2.499984,-0.00264964,0.0005851865,0.0005820041,0.0019496,0.00166026,1987.507,1976.847,0,99.45618,,
	08/08/2022 16:22:41.539,1.73441e+06,1979.58,200.00,5.00,0.001059972,3.500007,0.00370991,0.0005827508,2.325868E-09,0.001941214,5.814038E-09,1979.249,0.007,0,0.0003991188,,
	08/08/2022 16:55:28.937,1.73637e+06,1967.37,200.00,6.00,-0.001059896,2.499986,-0.00264973,0.0005827526,0.0005791146,0.001941221,0.001652381,1979.255,1967.016,0,99.37572,,